# XDI/1.0 Athena/0.9.26
# Element.edge:                  K
# Element.symbol:                Ti
# Column.1:                      energy eV
# Column.2:                      norm
# Column.3:                      nbkg
# Column.4:                      flat
# Column.5:                      fbkg
# Column.6:                      nder
# Column.7:                      nsec
# Athena.e0:                     4976.210
# Athena.eshift:                 0.852
# Athena.rbkg:                   1.0
# Athena.importance:             1
# Athena.standard:               None
# Athena.bkg_kweight:            2
# Athena.edge_step:              0.9937205
# Athena.fixed_step:             no
# Athena.pre_edge_range:         -50 -15
# Athena.pre_edge_line:          1.077408 - 0.000217722 * E
# Athena.normalization_range:    70 570
# Athena.post_edge_polynomial:   -6.653169 + 0.00294001 * E - 2.8224815e-007 * E^2 + 0 * E^3
# Athena.spline_range_energy:    0.000 279.889
# Athena.clamps:                 0 24
# Athena.spline_range_k:         0.000 8.571
# Athena.kweight:                0
# Athena.window:                 hanning
# Athena.phase_correction:       no
# Athena.k_range:                3.000 6.571
# Athena.dk:                     1
# Athena.r_range:                1 3
# Athena.dr:                     0.0
# Athena.window:                 hanning
# Athena.plot_multiplier:        1
# Athena.y_offset:               0
# ///
#------------------------
#   e         norm        nbkg        flat        fbkg        nder        nsec
  4755.8574       0.67187507E-01   0.67187503E-01   0.67187503E-01   0.67187503E-01  -0.61598947E-03   0.85115410E-05
  4760.8371       0.64120064E-01   0.64120061E-01   0.64120061E-01   0.64120061E-01  -0.57360455E-03   0.69203104E-05
  4765.8284       0.61468096E-01   0.61468093E-01   0.61468093E-01   0.61468093E-01  -0.54698706E-03  -0.25893483E-07
  4770.8312       0.58653420E-01   0.58653418E-01   0.58653418E-01   0.58653418E-01  -0.57386333E-03   0.15536446E-05
  4775.8272       0.55730151E-01   0.55730148E-01   0.55730148E-01   0.55730148E-01  -0.53145247E-03   0.48527740E-05
  4780.7981       0.53356487E-01   0.53356484E-01   0.53356484E-01   0.53356484E-01  -0.52549622E-03   0.51788753E-05
  4785.7989       0.50490060E-01   0.50490058E-01   0.50490058E-01   0.50490058E-01  -0.47981028E-03   0.78981938E-05
  4790.8297       0.48543222E-01   0.48543220E-01   0.48543220E-01   0.48543220E-01  -0.44626470E-03   0.21583862E-05
  4795.7796       0.46036026E-01   0.46036024E-01   0.46036024E-01   0.46036024E-01  -0.45826808E-03   0.86058425E-07
  4800.7780       0.43984234E-01   0.43984232E-01   0.43984232E-01   0.43984232E-01  -0.44540856E-03  -0.14212022E-05
  4805.7878       0.41578288E-01   0.41578286E-01   0.41578286E-01   0.41578286E-01  -0.47249176E-03   0.27671534E-05
  4810.7720       0.39262151E-01   0.39262149E-01   0.39262149E-01   0.39262149E-01  -0.41775363E-03   0.39192400E-05
  4815.7862       0.37401420E-01   0.37401418E-01   0.37401418E-01   0.37401418E-01  -0.43330563E-03  -0.44162282E-05
  4820.7932       0.34919909E-01   0.34919907E-01   0.34919907E-01   0.34919907E-01  -0.46200954E-03   0.21787302E-05
  4825.7930       0.32778183E-01   0.32778182E-01   0.32778182E-01   0.32778182E-01  -0.41150351E-03   0.65301781E-05
  4830.7854       0.30808083E-01   0.30808082E-01   0.30808082E-01   0.30808082E-01  -0.39675869E-03   0.43374788E-06
  4835.7892       0.28812104E-01   0.28812103E-01   0.28812103E-01   0.28812103E-01  -0.40716768E-03  -0.16049294E-05
  4840.7855       0.26736366E-01   0.26736365E-01   0.26736364E-01   0.26736365E-01  -0.41280815E-03   0.48407929E-05
  4845.7743       0.24690173E-01   0.24690172E-01   0.24690172E-01   0.24690172E-01  -0.35883188E-03   0.68150964E-05
  4850.7934       0.23145212E-01   0.23145211E-01   0.23145211E-01   0.23145211E-01  -0.34460335E-03  -0.23911595E-05
  4855.7669       0.21246690E-01   0.21246689E-01   0.21246689E-01   0.21246689E-01  -0.38272578E-03  -0.12885302E-05
  4860.7707       0.19326642E-01   0.19326641E-01   0.19326641E-01   0.19326641E-01  -0.35745940E-03   0.41736925E-05
  4865.8049       0.17658512E-01   0.17658512E-01   0.17658512E-01   0.17658512E-01  -0.34083025E-03   0.32272055E-05
  4870.7741       0.15917181E-01   0.15917180E-01   0.15917180E-01   0.15917180E-01  -0.32517637E-03   0.34803543E-05
  4875.7928       0.14410683E-01   0.14410683E-01   0.14410683E-01   0.14410683E-01  -0.30606882E-03  -0.14362912E-05
  4880.7844       0.12853340E-01   0.12853340E-01   0.12853340E-01   0.12853340E-01  -0.33955408E-03  -0.17130481E-05
  4885.7680       0.11023563E-01   0.11023563E-01   0.11023563E-01   0.11023563E-01  -0.32315682E-03   0.74850678E-05
  4890.8015       0.96162460E-02   0.96162456E-02   0.96162456E-02   0.96162456E-02  -0.26457540E-03   0.40586555E-05
  4895.7882       0.83724650E-02   0.83724647E-02   0.83724647E-02   0.83724647E-02  -0.28248828E-03   0.15967667E-05
  4900.7862       0.67956853E-02   0.67956850E-02   0.67956850E-02   0.67956850E-02  -0.24863217E-03   0.81177655E-05
  4905.7759       0.58892016E-02   0.58892013E-02   0.58892013E-02   0.58892013E-02  -0.20141047E-03   0.45755625E-06
  4910.7962       0.47795664E-02   0.47795662E-02   0.47795662E-02   0.47795662E-02  -0.24405203E-03  -0.46028800E-05
  4915.8083       0.34407740E-02   0.34407738E-02   0.34407738E-02   0.34407738E-02  -0.24758841E-03   0.37252227E-05
  4920.7925       0.23045984E-02   0.23045984E-02   0.23045983E-02   0.23045984E-02  -0.20681358E-03   0.75788996E-05
  4925.8271       0.13687501E-02   0.13687500E-02   0.13687500E-02   0.13687500E-02  -0.17165693E-03   0.66050472E-05
  4930.7943       0.58772019E-03   0.58772017E-03   0.58772016E-03   0.58772017E-03  -0.14075122E-03   0.29280419E-05
  4935.8119      -0.36622765E-04  -0.36622753E-04  -0.36622763E-04  -0.36622753E-04  -0.14242101E-03   0.24804954E-05
  4940.8012      -0.83747266E-03  -0.83747261E-03  -0.83747262E-03  -0.83747261E-03  -0.11592915E-03   0.54929808E-05
  4945.8214      -0.11970156E-02  -0.11970156E-02  -0.11970156E-02  -0.11970156E-02  -0.87439023E-04   0.19538564E-04
  4948.2961      -0.14928194E-02  -0.14928193E-02  -0.14928193E-02  -0.14928193E-02   0.30510433E-04   0.31435798E-04
  4952.7573      -0.98539832E-03  -0.98539826E-03  -0.98539827E-03  -0.98539826E-03   0.13059653E-03   0.22760281E-04
  4956.0941      -0.47442766E-03  -0.47442763E-03  -0.47442764E-03  -0.47442763E-03   0.20799510E-03   0.34035995E-04
  4958.5800       0.22569477E-03   0.22569477E-03   0.22569476E-03   0.22569477E-03   0.32877792E-03   0.70266001E-04
  4960.4314       0.95158080E-03   0.95158076E-03   0.95158075E-03   0.95158076E-03   0.51275983E-03   0.10325336E-03
  4961.8258       0.18900106E-02   0.18900105E-02   0.18900105E-02   0.18900105E-02   0.66391768E-03   0.20233819E-03
  4962.8623       0.25654983E-02   0.25654982E-02   0.25654982E-02   0.25654982E-02   0.10046237E-02   0.31888603E-03
  4963.6598       0.37324906E-02   0.37324904E-02   0.37324904E-02   0.37324904E-02   0.12487547E-02   0.24582840E-03
  4964.2183       0.42588096E-02   0.42588094E-02   0.42588094E-02   0.42588094E-02   0.13379670E-02   0.78423444E-03
  4964.6373       0.50403534E-02   0.50403531E-02   0.50403531E-02   0.50403531E-02   0.20153438E-02   0.11546881E-02
  4964.9765       0.57868433E-02   0.57868431E-02   0.57868431E-02   0.57868431E-02   0.22134516E-02   0.18964126E-02
  4965.2359       0.63653255E-02   0.63653252E-02   0.63653252E-02   0.63653252E-02   0.31505364E-02   0.27371507E-02
  4965.4953       0.74213416E-02   0.74213413E-02   0.74213413E-02   0.74213413E-02   0.36334854E-02   0.10155962E-02
  4965.7349       0.81784347E-02   0.81784343E-02   0.81784343E-02   0.81784343E-02   0.36573189E-02   0.50819895E-02
  4965.9744       0.91735631E-02   0.91735627E-02   0.91735627E-02   0.91735627E-02   0.60682665E-02   0.11192974E-01
  4966.2140       0.11085741E-01   0.11085741E-01   0.11085741E-01   0.11085741E-01   0.90198728E-02   0.13669262E-01
  4966.4536       0.13495886E-01   0.13495886E-01   0.13495885E-01   0.13495886E-01   0.12618577E-01   0.13231571E-01
  4966.7132       0.17384935E-01   0.17384934E-01   0.17384934E-01   0.17384934E-01   0.15625073E-01   0.57312628E-02
  4966.9728       0.21608424E-01   0.21608423E-01   0.21608423E-01   0.21608423E-01   0.15594249E-01  -0.85108943E-02
  4967.2325       0.25483028E-01   0.25483027E-01   0.25483027E-01   0.25483027E-01   0.11205365E-01  -0.12353328E-01
  4967.4921       0.27427370E-01   0.27427369E-01   0.27427369E-01   0.27427369E-01   0.91791654E-02   0.11542633E-01
  4967.7319       0.30067103E-01   0.30067102E-01   0.30067102E-01   0.30067102E-01   0.16969757E-01   0.39815068E-01
  4967.9716       0.35564368E-01   0.35564367E-01   0.35564367E-01   0.35564367E-01   0.28270491E-01   0.27973104E-01
  4968.2114       0.43622804E-01   0.43622801E-01   0.43622801E-01   0.43622801E-01   0.30382860E-01  -0.16552405E-01
  4968.4712       0.50743645E-01   0.50743643E-01   0.50743643E-01   0.50743643E-01   0.20000909E-01  -0.41388583E-01
  4968.7111       0.53617258E-01   0.53617255E-01   0.53617255E-01   0.53617255E-01   0.97009850E-02  -0.17587012E-01
  4968.9709       0.55591227E-01   0.55591225E-01   0.55591225E-01   0.55591225E-01   0.11212679E-01   0.20277290E-01
  4969.2308       0.59444487E-01   0.59444484E-01   0.59444484E-01   0.59444484E-01   0.20239093E-01   0.33396969E-01
  4969.4907       0.66111508E-01   0.66111505E-01   0.66111505E-01   0.66111505E-01   0.28572424E-01   0.22545795E-01
  4969.7306       0.73724985E-01   0.73724981E-01   0.73724981E-01   0.73724981E-01   0.31507481E-01  -0.35129889E-02
  4969.9706       0.81231948E-01   0.81231944E-01   0.81231944E-01   0.81231944E-01   0.26886540E-01  -0.35430908E-01
  4970.2106       0.86630524E-01   0.86630520E-01   0.86630520E-01   0.86630520E-01   0.14500645E-01  -0.57506867E-01
  4970.4706       0.88482271E-01   0.88482267E-01   0.88482267E-01   0.88482267E-01  -0.18668928E-02  -0.60996080E-01
  4970.7107       0.85696891E-01   0.85696887E-01   0.85696887E-01   0.85696887E-01  -0.16003495E-01  -0.34978007E-01
  4970.9708       0.80477323E-01   0.80477319E-01   0.80477319E-01   0.80477319E-01  -0.19362892E-01  -0.11155701E-02
  4971.2309       0.75624315E-01   0.75624311E-01   0.75624311E-01   0.75624311E-01  -0.16583814E-01   0.17815428E-01
  4971.4910       0.71850423E-01   0.71850419E-01   0.71850419E-01   0.71850419E-01  -0.10095306E-01   0.29771041E-01
  4971.7312       0.70573633E-01   0.70573630E-01   0.70573629E-01   0.70573630E-01  -0.16893625E-02   0.33922861E-01
  4971.9714       0.71038853E-01   0.71038850E-01   0.71038850E-01   0.71038850E-01   0.62012360E-02   0.37751047E-01
  4972.2116       0.73552707E-01   0.73552703E-01   0.73552703E-01   0.73552703E-01   0.16446241E-01   0.44528323E-01
  4972.4718       0.79268552E-01   0.79268548E-01   0.79268548E-01   0.79268548E-01   0.28483209E-01   0.49238267E-01
  4972.7121       0.87808553E-01   0.87808549E-01   0.87808549E-01   0.87808549E-01   0.41089993E-01   0.54251235E-01
  4972.9724       0.99838202E-01   0.99838198E-01   0.99838198E-01   0.99838198E-01   0.55641377E-01   0.59145767E-01
  4973.2327       0.11677545       0.11677545       0.11677545       0.11677545       0.71881280E-01   0.71912405E-01
  4973.4931       0.13726678       0.13726678       0.13726678       0.13726678       0.93086166E-01   0.80674444E-01
  4973.7335       0.16339301       0.16339300       0.16339300       0.16339300       0.11228304       0.52484308E-01
  4973.9739       0.19125247       0.19125246       0.19125246       0.19125246       0.11832062       0.10283958E-01
  4974.2143       0.22028156       0.22028155       0.22028155       0.22028155       0.11722757      -0.15646364E-01
  4974.4547       0.24761549       0.24761547       0.24761547       0.24761547       0.11079785      -0.19799608E-01
  4974.7152       0.27578020       0.27578019       0.27578019       0.27578019       0.10730994       0.10014336E-01
  4974.9758       0.30353470       0.30353468       0.30353468       0.30353468       0.11601632       0.43903015E-01
  4975.2364       0.33624791       0.33624789       0.33624789       0.33624789       0.13019220       0.65144513E-01
  4975.4970       0.37139087       0.37139085       0.37139085       0.37139085       0.14996964       0.69608119E-01
  4975.7375       0.41139770       0.41139768       0.41139768       0.41139768       0.16507282       0.28281091E-01
  4975.9781       0.45080741       0.45080739       0.45080739       0.45080739       0.16357567      -0.19895297E-02
  4976.2188       0.49012667       0.98386125       0.49012360       0.98385821       0.16411526       0.14208490E-01
  4976.4795       0.53309480        1.1770571       0.53300028        1.1769626       0.17069981       0.25759450E-01
  4976.7202       0.57571555        1.1748919       0.57553663        1.1747130       0.17703105       0.93973337E-02
  4976.9809       0.62185817        1.1725658       0.62158786        1.1722956       0.17541163       0.37853736E-02
  4977.2417       0.66719272        1.1702587       0.66683104        1.1698971       0.17900512       0.26710448E-01
  4977.5026       0.71524514        1.1679705       0.71479208        1.1675174       0.18934647       0.32137273E-02
  4977.7233       0.75838198        1.1660501       0.75785166        1.1655198       0.18055286      -0.66791149E-01
  4977.9641       0.79857028        1.1639709       0.79795569        1.1633563       0.15852236      -0.67749120E-01
  4978.2250       0.83791265        1.1617369       0.83720679        1.1610311       0.14656312      -0.45783334E-01
  4978.4659       0.87211566        1.1596914       0.87132556        1.1589013       0.13554828      -0.42976536E-01
  4978.7269       0.90594433        1.1574939       0.90506301        1.1566126       0.12499320      -0.52598462E-01
  4978.9678       0.93484975        1.1554827       0.93388426        1.1545173       0.10914911      -0.63783386E-01
  4979.2288       0.96072627        1.1533223       0.95966963        1.1522657       0.92980317E-01  -0.57722552E-01
  4979.4899       0.98339477        1.1511801       0.98224698        1.1500324       0.79012170E-01  -0.63447238E-01
  4979.7309        1.0003983        1.1492199       0.99916640        1.1479880       0.61123458E-01  -0.76639703E-01
  4979.9719        1.0128563        1.1472758        1.0115403        1.1459599       0.42071833E-01  -0.72510381E-01
  4980.2130        1.0206811        1.1453471        1.0192811        1.1439472       0.26166203E-01  -0.50471237E-01
  4980.4741        1.0259969        1.1432766        1.0245059        1.1417856       0.16725178E-01  -0.31446269E-01
  4980.7152        1.0290805        1.1413814        1.0275055        1.1398064       0.10373887E-01  -0.22580805E-01
  4980.9564        1.0310003        1.1395013        1.0293413        1.1378424       0.58344552E-02  -0.16828955E-01
  4981.2377        1.0321290        1.1373289        1.0303721        1.1355720       0.15807583E-02  -0.15938511E-01
  4981.4789        1.0318262        1.1354833        1.0299854        1.1336424      -0.24934166E-02  -0.14705701E-01
  4981.7201        1.0309262        1.1336534        1.0290014        1.1317287      -0.55132721E-02  -0.11722485E-01
  4981.9614        1.0291661        1.1318386        1.0271574        1.1298300      -0.81495156E-02  -0.57489967E-02
  4982.2026        1.0269940        1.1300402        1.0249016        1.1279477      -0.82871630E-02   0.36124700E-02
  4982.4640        1.0250009        1.1281088        1.0228176        1.1259255      -0.63338882E-02   0.77576454E-02
  4982.7053        1.0238100        1.1263421        1.0215429        1.1240750      -0.43873947E-02   0.98969024E-02
  4982.9668        1.0227950        1.1244450        1.0204371        1.1220872      -0.13577257E-02   0.16927426E-01
  4983.2283        1.0230999        1.1225660        1.0206513        1.1201175       0.44656494E-02   0.18999497E-01
  4983.4898        1.0251305        1.1207051        1.0225912        1.1181658       0.85790111E-02   0.18195006E-01
  4983.7312        1.0274143        1.1190031        1.0247913        1.1163802       0.13615918E-01   0.22481259E-01
  4983.9727        1.0317056        1.1173157        1.0289990        1.1146091       0.19435211E-01   0.21439739E-01
  4984.2142        1.0368015        1.1156435        1.0340112        1.1128532       0.23971312E-01   0.20818136E-01
  4984.4758        1.0437656        1.1138492        1.0408847        1.1109683       0.29908815E-01   0.25204647E-01
  4984.7173        1.0518486        1.1122084        1.0488841        1.1092440       0.36651770E-01   0.22015583E-01
  4984.9589        1.0614720        1.1105820        1.0584240        1.1075340       0.40544543E-01   0.16241880E-01
  4985.2407        1.0730696        1.1087038        1.0699241        1.1055584       0.45152770E-01   0.19822497E-01
  4985.4823        1.0851050        1.1071097        1.0818760        1.1038807       0.50919638E-01   0.18557952E-01
  4985.7240        1.0976791        1.1055298        1.0943665        1.1022173       0.54121828E-01   0.94751622E-02
  4985.9656        1.1112621        1.1039653        1.1078661        1.1005693       0.55498984E-01   0.59374349E-03
  4986.2073        1.1245018        1.1024148        1.1210223        1.0989354       0.54408784E-01  -0.74214519E-02
  4986.4490        1.1375633        1.1008790        1.1340004        1.0973162       0.51911454E-01  -0.11904779E-01
  4986.7109        1.1506444        1.0992313        1.1469911        1.0955782       0.48413538E-01  -0.18012169E-01
  4986.9527        1.1619492        1.0977252        1.1582126        1.0939887       0.42838725E-01  -0.23691625E-01
  4987.2146        1.1722222        1.0961103        1.1683953        1.0922834       0.36480066E-01  -0.16420929E-01
  4987.4968        1.1817980        1.0943890        1.1778739        1.0904650       0.33904097E-01  -0.11894893E-01
  4987.7386        1.1899880        1.0929297        1.1859806        1.0889224       0.30247142E-01  -0.22261795E-01
  4987.9603        1.1958175        1.0916043        1.1917338        1.0875206       0.23585755E-01  -0.23714831E-01
  4988.2224        1.2013988        1.0900527        1.1972248        1.0858789       0.18773907E-01  -0.21815689E-01
  4988.4643        1.2052796        1.0886355        1.2010225        1.0843784       0.12590648E-01  -0.23078767E-01
  4988.7063        1.2074914        1.0872318        1.2031510        1.0828915       0.76060916E-02  -0.15787667E-01
  4988.9684        1.2091138        1.0857273        1.2046834        1.0812969       0.46320848E-02  -0.10907578E-01
  4989.2306        1.2099200        1.0842387        1.2053995        1.0797182       0.18872484E-02  -0.91553486E-02
  4989.4726        1.2100654        1.0828792        1.2054618        1.0782757       0.15958065E-04  -0.86826667E-02
  4989.7349        1.2099280        1.0814214        1.2052344        1.0767278      -0.24914204E-02  -0.11228075E-01
  4989.9770        1.2088087        1.0800902        1.2040320        1.0753135      -0.56474832E-02  -0.75267573E-02
  4990.1989        1.2073076        1.0788821        1.2024548        1.0740293      -0.59838358E-02  -0.79985428E-03
  4990.4612        1.2059113        1.0774689        1.2009686        1.0725262      -0.60347726E-02  -0.38728651E-02
  4990.7236        1.2041411        1.0760711        1.1991085        1.0710385      -0.80159281E-02  -0.71008465E-02
  4990.9658        1.2018665        1.0747950        1.1967508        1.0696794      -0.96178598E-02  -0.16997963E-02
  4991.2080        1.1994823        1.0735325        1.1942837        1.0683339      -0.88393094E-02  -0.43291432E-03
  4991.4906        1.1972276        1.0720763        1.1919323        1.0667810      -0.98450532E-02  -0.54339952E-02
  4991.7329        1.1943146        1.0708422        1.1889364        1.0654641      -0.11691614E-01  -0.41801354E-02
  4991.9550        1.1917980        1.0697227        1.1863439        1.0642686      -0.11786308E-01  -0.20684069E-02
  4992.1973        1.1888410        1.0685141        1.1833040        1.0629772      -0.12652182E-01  -0.23745725E-02
  4992.4599        1.1854100        1.0672191        1.1797832        1.0615925      -0.12985230E-01  -0.20328578E-02
  4992.7022        1.1822848        1.0660379        1.1765753        1.0603285      -0.13678572E-01  -0.18031537E-02
  4992.9446        1.1787800        1.0648693        1.1729877        1.0590771      -0.13859218E-01  -0.74197230E-04
  4993.2275        1.1750045        1.0635219        1.1691157        1.0576331      -0.13717547E-01  -0.21380288E-02
  4993.4901        1.1712970        1.0622869        1.1653186        1.0563085      -0.15025513E-01  -0.49457615E-02
  4993.7326        1.1674151        1.0611598        1.1613540        1.0550987      -0.16215651E-01  -0.51783485E-02
  4993.9751        1.1634324        1.0600455        1.1572887        1.0539018      -0.17537012E-01  -0.40819338E-02
  4994.2177        1.1589079        1.0589436        1.1526815        1.0527172      -0.18195798E-01   0.79096166E-04
  4994.4603        1.1546038        1.0578543        1.1482948        1.0515453      -0.17498635E-01   0.36315111E-02
  4994.7028        1.1504194        1.0567782        1.1440278        1.0503866      -0.16434152E-01   0.27089682E-02
  4994.9657        1.1462980        1.0556256        1.1398170        1.0491446      -0.16129522E-01  -0.50111635E-04
  4995.2285        1.1419401        1.0544882        1.1353696        1.0479178      -0.16460495E-01  -0.12120925E-02
  4995.4914        1.1376447        1.0533650        1.1309849        1.0467052      -0.16766719E-01  -0.14311257E-03
  4995.7341        1.1334628        1.0523409        1.1267205        1.0455987      -0.16532853E-01   0.51756378E-03
  4995.9769        1.1296180        1.0513288        1.1227932        1.0445040      -0.16515442E-01  -0.18170167E-02
  4996.2196        1.1254446        1.0503293        1.1185373        1.0434222      -0.17415015E-01  -0.18086907E-02
  4996.4624        1.1211630        1.0493417        1.1141734        1.0423521      -0.17393561E-01   0.38180724E-02
  4996.7052        1.1169983        1.0483661        1.1099262        1.0412942      -0.15560959E-01   0.67790561E-02
  4996.9683        1.1132908        1.0473227        1.1061295        1.0401614      -0.13964037E-01   0.46107000E-02
  4997.2314        1.1096504        1.0462933        1.1023999        1.0390429      -0.13134808E-01   0.38475229E-03
  4997.4945        1.1063792        1.0452779        1.0990396        1.0379384      -0.13761580E-01  -0.25676789E-02
  4997.7374        1.1026870        1.0443529        1.0952651        1.0369311      -0.14434054E-01  -0.20281843E-02
  4997.9803        1.0993672        1.0434397        1.0918630        1.0359356      -0.14746872E-01  -0.59526589E-03
  4998.2233        1.0955215        1.0425379        1.0879352        1.0349516      -0.14723293E-01   0.53226994E-02
  4998.4663        1.0922116        1.0416478        1.0845431        1.0339793      -0.12160040E-01   0.71523802E-02
  4998.7296        1.0893649        1.0406965        1.0816073        1.0329389      -0.11102043E-01  -0.54417951E-03
  4998.9726        1.0865907        1.0398306        1.0787509        1.0319909      -0.12435558E-01  -0.79788576E-03
  4999.2157        1.0833200        1.0389758        1.0753981        1.0310540      -0.11489896E-01   0.34524966E-02
  4999.4993        1.0805389        1.0379931        1.0725213        1.0299755      -0.10617128E-01  -0.94989517E-03
  4999.7424        1.0777279        1.0371631        1.0696282        1.0290634      -0.11990205E-01  -0.43777612E-02
  4999.9856        1.0747081        1.0363441        1.0665263        1.0281623      -0.12746033E-01  -0.76234673E-03
  5000.2085        1.0717870        1.0356033        1.0635300        1.0273464      -0.12345535E-01   0.32680535E-02
  5000.4517        1.0689539        1.0348058        1.0606149        1.0264669      -0.11222794E-01   0.28494606E-02
  5000.7152        1.0661004        1.0339543        1.0576726        1.0255266      -0.10901714E-01   0.30815297E-03
  5000.9990        1.0629873        1.0330518        1.0544639        1.0245284      -0.11054142E-01   0.11424733E-02
  5001.2625        1.0600505        1.0322272        1.0514384        1.0236152      -0.10276438E-01  -0.72583994E-04
  5001.5667        1.0571534        1.0312913        1.0484389        1.0225768      -0.11095347E-01  -0.48688541E-02
  5001.8303        1.0537505        1.0304940        1.0449474        1.0216909      -0.13040973E-01  -0.45436872E-02
  5002.1142        1.0500135        1.0296495        1.0411148        1.0207509      -0.13583016E-01   0.19371703E-03
  5002.3982        1.0460367        1.0288193        1.0370427        1.0198252      -0.12930961E-01   0.11862692E-02
  5002.7025        1.0424062        1.0279458        1.0333099        1.0188496      -0.12885134E-01  -0.47805042E-03
  5003.0271        1.0379333        1.0270323        1.0287280        1.0178271      -0.13231607E-01  -0.69891410E-03
  5003.3518        1.0338149        1.0261373        1.0245007        1.0168231      -0.13338939E-01  -0.18249793E-02
  5003.6968        1.0290002        1.0252065        1.0195703        1.0157766      -0.14453796E-01  -0.26858753E-02
  5004.0013        1.0244272        1.0244023        1.0148952        1.0148703      -0.15083415E-01  -0.10517013E-03
  5004.3261        1.0195082        1.0235621        1.0098674        1.0139213      -0.14519979E-01   0.33668083E-02
  5004.6713        1.0146988        1.0226890        1.0049424        1.0129326      -0.12827653E-01   0.37695130E-02
  5005.0368        1.0103916        1.0217866        1.0005129        1.0119079      -0.11840987E-01   0.20720640E-02
  5005.4024        1.0060418        1.0209064       0.99604090        1.0109056      -0.11312767E-01  -0.12669228E-02
  5005.7680        1.0021197        1.0200486       0.99199657        1.0099255      -0.12767360E-01  -0.51307628E-02
  5006.1337       0.99670507        1.0192126       0.98645981        1.0089674      -0.15064894E-01  -0.27385413E-02
  5006.5198       0.99079390        1.0183537       0.98041978        1.0079797      -0.14826196E-01   0.28152318E-02
  5006.9059       0.98525628        1.0175190       0.97475337        1.0070162      -0.12890972E-01   0.53577646E-02
  5007.2922       0.98083691        1.0167077       0.97020524        1.0060761      -0.10687858E-01   0.40243411E-02
  5007.7191       0.97656491        1.0158387       0.96579104        1.0050649      -0.96183782E-02   0.18272411E-02
  5008.1054       0.97301525        1.0150770       0.96211279        1.0041746      -0.92019460E-02  -0.15049725E-02
  5008.5122       0.96926685        1.0142998       0.95822907        1.0032621      -0.10811972E-01  -0.52351463E-02
  5008.9190       0.96421863        1.0135480       0.95304562        1.0023750      -0.13461261E-01  -0.39889201E-02
  5009.3666       0.95776555        1.0127497       0.94644386        1.0014280      -0.14220105E-01  -0.79199689E-03
  5009.8143       0.95148737        1.0119812       0.94001709        1.0005109      -0.14170336E-01   0.92340658E-03
  5010.2417       0.94536509        1.0112751       0.93375305       0.99966311      -0.13412032E-01   0.25310602E-02
  5010.6895       0.93974916        1.0105639       0.92798871       0.99880346      -0.11955152E-01   0.35863569E-02
  5011.1375       0.93465566        1.0098811       0.92274685       0.99797238      -0.10199374E-01   0.43785602E-02
  5011.6262       0.93019540        1.0091688       0.91812489       0.99709834      -0.78537546E-02   0.47315152E-02
  5012.0947       0.92713805        1.0085172       0.91491263       0.99629187      -0.56703672E-02   0.43776285E-02
  5012.5429       0.92499738        1.0079222       0.91262389       0.99554872      -0.38407825E-02   0.39154989E-02
  5013.0320       0.92353808        1.0073038       0.91100314       0.99476894      -0.20003702E-02   0.87654005E-03
  5013.5211       0.92304062        1.0067174       0.91034436       0.99402123      -0.29833511E-02  -0.54800866E-03
  5014.0308       0.92055831        1.0061398       0.90769409       0.99327557      -0.25477212E-02   0.69192566E-02
  5014.5202       0.92049519        1.0056166       0.90746983       0.99259132       0.39296782E-02   0.74657779E-02
  5015.0300       0.92448485        1.0051040       0.91129178       0.99191101       0.49120841E-02  -0.19867760E-02
  5015.5604       0.92560474        1.0046051       0.91223734       0.99123776       0.18630338E-02  -0.24504514E-02
  5016.0909       0.92646134        1.0041405       0.91291974       0.99059898       0.23124002E-02   0.14519495E-02
  5016.6011       0.92801125        1.0037256       0.91430227       0.99001668       0.33740776E-02   0.17666115E-02
  5017.1319       0.92997375        1.0033265       0.91609078       0.98944357       0.41514428E-02   0.15879300E-02
  5017.6832       0.93250353        1.0029464       0.91844002       0.98888294       0.50923767E-02   0.15931372E-02
  5018.2346       0.93558912        1.0026006       0.92134521       0.98835676       0.59081952E-02   0.62813200E-03
  5018.7862       0.93902027        1.0022884       0.92459607       0.98786423       0.57852063E-02  -0.34705162E-03
  5019.3583       0.94208995        1.0019993       0.92747895       0.98738838       0.55182133E-02  -0.43241179E-03
  5019.9510       0.94544788        1.0017364       0.93064354       0.98693208       0.52815330E-02  -0.43496943E-03
  5020.5030       0.94813572        1.0015241       0.93315150       0.98653992       0.50203038E-02  -0.10653847E-03
  5021.0960       0.95119613        1.0013302       0.93601885       0.98615301       0.51595465E-02  -0.13248992E-03
  5021.6892       0.95425598        1.0011709       0.93888579       0.98580071       0.48631443E-02  -0.94614472E-03
  5022.2825       0.95696625        1.0010451       0.94140331       0.98548218       0.40369458E-02  -0.50118793E-03
  5022.8759       0.95904662        1.0009520       0.94329110       0.98519654       0.42683846E-02   0.43716212E-03
  5023.4900       0.96212033        1.0008892       0.94616572       0.98493465       0.45648190E-02  -0.36518373E-03
  5024.1248       0.96474762        1.0008591       0.94858744       0.98469891       0.38123066E-02  -0.46926913E-03
  5024.7392       0.96688266        1.0008625       0.95052373       0.98450356       0.39786080E-02   0.63542413E-03
  5025.3743       0.96971890        1.0008986       0.95315474       0.98433448       0.46062690E-02   0.33040931E-03
  5026.0300       0.97282843        1.0009695       0.95605264       0.98419376       0.44051004E-02  -0.77439608E-04
  5026.6654       0.97540632        1.0010697       0.95842568       0.98408906       0.45062868E-02   0.64640279E-03
  5027.3010       0.97855592        1.0011997       0.96137059       0.98401437       0.52266783E-02   0.65640814E-03
  5027.9778       0.98226581        1.0013696       0.96486278       0.98396661       0.53677568E-02  -0.11711667E-03
  5028.6343       0.98571275        1.0015642       0.96809880       0.98395033       0.50705267E-02  -0.38173291E-04
  5029.3115       0.98902837        1.0017945       0.97119710       0.98396323       0.53168451E-02   0.25590480E-03
  5030.0095       0.99302448        1.0020616       0.97496949       0.98400666       0.54224469E-02   0.11467177E-03
  5030.6871       0.99648749        1.0023485       0.97821558       0.98407667       0.54745876E-02   0.48294429E-03
  5031.3649        1.0004447        1.0026614       0.98195611       0.98417280       0.60770296E-02   0.26688210E-03
  5032.0840        1.0049765        1.0030200       0.98625823       0.98430178       0.58473952E-02  -0.14187237E-03
  5032.7828        1.0087358        1.0033933       0.98979461       0.98445225       0.58758688E-02   0.31169924E-03
  5033.4817        1.0131892        1.0037897       0.99402542       0.98462599       0.62830572E-02   0.16238753E-03
  5034.2221        1.0177790        1.0042330       0.99837964       0.98483377       0.61095932E-02   0.32540096E-04
  5034.9421        1.0221116        1.0046856        1.0024836       0.98505757       0.63305788E-02   0.35565783E-03
  5035.6829        1.0270267        1.0051716        1.0071635       0.98530847       0.66291381E-02  -0.16566359E-04
  5036.4445        1.0320713        1.0056908        1.0119668       0.98558639       0.63056895E-02  -0.87220207E-03
  5037.1652        1.0363736        1.0061988        1.0160411       0.98586630       0.53362730E-02  -0.75696684E-04
  5037.9273        1.0399839        1.0067517        1.0194105       0.98617834       0.61934464E-02   0.13700350E-02
  5038.7103        1.0459431        1.0073346        1.0251226       0.98651411       0.74531142E-02   0.26061996E-04
  5039.4523        1.0513499        1.0078989        1.0302955       0.98684461       0.62331910E-02  -0.13260303E-02
  5040.2564        1.0555802        1.0085216        1.0342728       0.98721418       0.54029388E-02  -0.79010729E-03
  5041.0195        1.0598174        1.0091211        1.0382701       0.98757388       0.49949348E-02  -0.44456715E-03
  5041.8035        1.0633079        1.0097437        1.0415146       0.98795044       0.47151489E-02  -0.43151302E-03
  5042.6291        1.0674069        1.0104044        1.0453548       0.98835238       0.43003715E-02  -0.56048401E-03
  5043.4137        1.0702323        1.0110348        1.0479348       0.98873727       0.38126576E-02  -0.65310506E-03
  5044.2398        1.0735479        1.0116989        1.0509922       0.98914322       0.32484151E-02  -0.87240063E-03
  5045.0456        1.0755334        1.0123446        1.0527263       0.98953759       0.23889870E-02  -0.86934562E-03
  5045.8723        1.0774479        1.0130027        1.0543833       0.98993811       0.18292084E-02  -0.87272517E-03
  5046.7201        1.0785964        1.0136703        1.0552681       0.99034200       0.92760868E-03  -0.10495715E-02
  5047.5267        1.0789826        1.0142969        1.0554037       0.99071808       0.92797270E-04  -0.88026270E-03
  5048.3957        1.0787519        1.0149625        1.0549035       0.99111416      -0.54735950E-03  -0.98479751E-03
  5049.2443        1.0780424        1.0156030        1.0539313       0.99149191      -0.15986909E-02  -0.12355887E-02
  5050.0933        1.0760380        1.0162345        1.0516644       0.99186099      -0.26448948E-02  -0.93348371E-03
  5050.9840        1.0734411        1.0168873        1.0487926       0.99223877      -0.32226725E-02  -0.70233189E-03
  5051.8336        1.0704296        1.0175005        1.0455192       0.99259022      -0.38671630E-02  -0.70931989E-03
  5052.7249        1.0667088        1.0181342        1.0415242       0.99294965      -0.44575275E-02  -0.71388780E-03
  5053.5751        1.0626668        1.0187294        1.0372211       0.99328376      -0.51103987E-02  -0.35098429E-03
  5054.4879        1.0576991        1.0193587        1.0319735       0.99363306      -0.50763128E-02  -0.94999405E-04
  5055.4011        1.0533974        1.0199780        1.0273922       0.99397285      -0.52838676E-02  -0.24885930E-03
  5056.2938        1.0481570        1.0205738        1.0218789       0.99429577      -0.55257279E-02  -0.12528996E-03
  5057.2284        1.0433003        1.0211873        1.0167370       0.99462415      -0.55128099E-02  -0.72795634E-04
  5058.1219        1.0380790        1.0217643        1.0112436       0.99492893      -0.56588056E-02   0.20347798E-04
  5059.0780        1.0328338        1.0223713        1.0057076       0.99524524      -0.54751746E-02   0.36388354E-03
  5059.9722        1.0279483        1.0229295        1.0005508       0.99553199      -0.49855118E-02   0.48827439E-03
  5060.9499        1.0235014        1.0235293       0.99580756       0.99583557      -0.45611738E-02   0.45487635E-03
  5061.8656        1.0193122        1.0240814       0.99134139       0.99611060      -0.41242490E-02   0.49068271E-03
  5062.8233        1.0157750        1.0246486       0.98751503       0.99638872      -0.36419288E-02   0.48170655E-03
  5063.8022        1.0122592        1.0252180       0.98370421       0.99666305      -0.31913761E-02   0.62067277E-03
  5064.7607        1.0095920        1.0257654       0.98074866       0.99692205      -0.24394374E-02   0.49642758E-03
  5065.7613        1.0074801        1.0263262       0.97833628       0.99718240      -0.22188248E-02   0.30744857E-03
  5066.7206        1.0052434        1.0268539       0.97581197       0.99742251      -0.18368689E-02   0.44788507E-03
  5067.7220        1.0038786        1.0273943       0.97414759       0.99766336      -0.13406565E-02   0.38013824E-03
  5068.7030        1.0025856        1.0279136       0.97256172       0.99788973      -0.10832829E-02   0.24226909E-03
  5069.7262        1.0017075        1.0284447       0.97137858       0.99811589      -0.85510081E-03   0.29111034E-03
  5070.7081        1.0008711        1.0289444       0.97025010       0.99832348      -0.49957752E-03   0.27870289E-03
  5071.7739        1.0006845        1.0294759       0.96974707       0.99853851      -0.28440091E-03   0.20402637E-03
  5072.7566        1.0002885        1.0299559       0.96905989       0.99872740      -0.81629512E-04   0.12552358E-03
  5073.8234        1.0005172        1.0304665       0.96897310       0.99892242      -0.27140343E-04   0.10025635E-03
  5074.8279        1.0002323        1.0309372       0.96839172       0.99909664       0.12603146E-03   0.21322676E-03
  5075.8957        1.0007784        1.0314270       0.96862328       0.99927200       0.41472946E-03   0.13275788E-03
  5076.9220        1.0011008        1.0318878       0.96864399       0.99943111       0.40403973E-03   0.11364141E-03
  5078.0117        1.0016333        1.0323665       0.96885686       0.99959011       0.65519468E-03   0.19465243E-03
  5079.0390        1.0024878        1.0328079       0.96941061       0.99973078       0.81611892E-03   0.18483554E-06
  5080.1506        1.0033789        1.0332750       0.96997696       0.99987306       0.65559002E-03  -0.49739850E-06
  5081.1998        1.0039044        1.0337058       0.97019658       0.99999805       0.81504415E-03   0.15624121E-03
  5082.2915        1.0051238        1.0341441       0.97109840        1.0001187       0.99008684E-03   0.12605177E-03
  5083.3837        1.0060667        1.0345724       0.97172415        1.0002299       0.10903286E-02   0.10643818E-03
  5084.4974        1.0075290        1.0349988       0.97286386        1.0003338       0.12248788E-02   0.14940245E-03
  5085.5906        1.0087698        1.0354076       0.97378872        1.0004265       0.14200449E-02   0.11534225E-03
  5086.7054        1.0106644        1.0358145       0.97536179        1.0005119       0.14795545E-02   0.89964000E-04
  5087.7997        1.0120383        1.0362043       0.97642073        1.0005868       0.16187843E-02   0.12985372E-03
  5088.9366        1.0142763        1.0365995       0.97833220        1.0006555       0.17692841E-02   0.10018624E-03
  5090.0740        1.0160622        1.0369850       0.97979225        1.0007151       0.18466379E-02   0.19035279E-03
  5091.2120        1.0184781        1.0373611       0.98188283        1.0007658       0.22024129E-02   0.14660030E-03
  5092.3716        1.0211225        1.0377345       0.98419645        1.0008085       0.21834668E-02  -0.12935553E-05
  5093.5107        1.0234973        1.0380920       0.98624707        1.0008418       0.21994394E-02   0.22572233E-03
  5094.6926        1.0262274        1.0384532       0.98864164        1.0008675       0.27073683E-02   0.30138731E-03
  5095.8540        1.0298414        1.0387989       0.99192674        1.0008842       0.29056803E-02   0.30816349E-04
  5097.0371        1.0330397        1.0391417       0.99479073        1.0008928       0.27796172E-02  -0.37699064E-04
  5098.1996        1.0363613        1.0394696       0.99778457        1.0008930       0.28172533E-02  -0.27386948E-04
  5099.4050        1.0397107        1.0398005        1.0007950        1.0008849       0.27147677E-02   0.77508175E-05
  5100.5899        1.0428504        1.0401170        1.0036022        1.0008689       0.28357801E-02   0.99595441E-04
  5101.7965        1.0464925        1.0404304        1.0069066        1.0008446       0.29529502E-02  -0.34071694E-04
  5103.0250        1.0500411        1.0407407        1.0101123        1.0008119       0.27528121E-02  -0.14863997E-03
  5104.2117        1.0531411        1.0410322        1.0128817        1.0007729       0.25939549E-02  -0.18419770E-03
  5105.4626        1.0563642        1.0413309        1.0157573        1.0007241       0.23038118E-02  -0.20566928E-03
  5106.6718        1.0588087        1.0416116        1.0178667        1.0006697       0.20879879E-02  -0.17443968E-03
  5107.9240        1.0615035        1.0418941        1.0202155        1.0006060       0.18744460E-02  -0.24672050E-03
  5109.1557        1.0634646        1.0421641        1.0218370        1.0005365       0.14751589E-02  -0.22961217E-03
  5110.3880        1.0651383        1.0424268        1.0231718        1.0004603       0.13086816E-02  -0.16338142E-03
  5111.6635        1.0667465        1.0426910        1.0244301        1.0003746       0.10654309E-02  -0.26175112E-03
  5112.8971        1.0678116        1.0429393        1.0251577        1.0002855       0.65192185E-03  -0.27812120E-03
  5114.1952        1.0683970        1.0431934        1.0253889        1.0001853       0.36131150E-03  -0.22953248E-03
  5115.4728        1.0687422        1.0434363        1.0253864        1.0000806       0.60715044E-04  -0.25724697E-03
  5116.7297        1.0685509        1.0436688        1.0248540       0.99997191      -0.29068095E-03  -0.29227260E-03
  5118.0726        1.0679865        1.0439102        1.0239261       0.99984988      -0.69913527E-03  -0.28643340E-03
  5119.3310        1.0667322        1.0441303        1.0223321       0.99973027      -0.10357802E-02  -0.13674201E-03
  5120.6540        1.0653128        1.0443555        1.0205565       0.99959933      -0.10521211E-02  -0.76753189E-04
  5121.9564        1.0639700        1.0445713        1.0188641       0.99946551      -0.12372880E-02  -0.11884737E-03
  5123.2810        1.0620624        1.0447852        1.0166019       0.99932472      -0.13643331E-02  -0.10658414E-03
  5124.6276        1.0603256        1.0449970        1.0145056       0.99917705      -0.15219955E-02  -0.11182375E-03
  5125.9322        1.0580273        1.0451971        1.0118600       0.99902993      -0.16608003E-02  -0.29164589E-04
  5127.2590        1.0559553        1.0453959        1.0094359       0.99887650      -0.15987392E-02  -0.42358263E-04
  5128.6293        1.0537153        1.0455964        1.0068332       0.99871435      -0.17750447E-02  -0.62270399E-04
  5129.9576        1.0511652        1.0457866        1.0039325       0.99855390      -0.17667821E-02   0.81901031E-04
  5131.3295        1.0489447        1.0459788        1.0013509       0.99838515      -0.15538956E-02   0.12192811E-03
  5132.7022        1.0469004        1.0461674       0.99894651       0.99821353      -0.14321382E-02   0.47379291E-04
  5134.0542        1.0450425        1.0463496       0.99673496       0.99804214      -0.14248012E-02  -0.18667816E-04
  5135.4500        1.0429853        1.0465346       0.99431372       0.99786307      -0.14834337E-02   0.56338078E-04
  5136.8251        1.0409321        1.0467140       0.99190290       0.99768490      -0.12686940E-02   0.17271637E-03
  5138.2225        1.0394679        1.0468938       0.99007643       0.99750241      -0.10045775E-02   0.12424814E-03
  5139.6423        1.0381020        1.0470742       0.98834360       0.99731588      -0.91866219E-03   0.75279235E-04
  5141.0198        1.0368981        1.0472474       0.98678481       0.99713419      -0.79399892E-03   0.12632957E-03
  5142.4412        1.0358796        1.0474247       0.98540128       0.99694634      -0.56507835E-03   0.99889218E-04
  5143.8851        1.0352790        1.0476035       0.98443091       0.99675552      -0.50778634E-03   0.42570253E-04
  5145.3082        1.0344238        1.0477790       0.98321255       0.99656783      -0.44302943E-03   0.15601250E-03
  5146.7323        1.0340176        1.0479543       0.98244400       0.99638077      -0.63587540E-04   0.15751277E-03
  5148.2003        1.0342399        1.0481350       0.98229406       0.99618914       0.12513238E-04   0.28806815E-04
  5149.6261        1.0340538        1.0483108       0.98174753       0.99600458       0.19773622E-04   0.70967164E-04
  5151.0743        1.0342967        1.0484902       0.98162561       0.99581909       0.21647287E-03   0.10946482E-03
  5152.5667        1.0346903        1.0486763       0.98164443       0.99563043       0.34166586E-03   0.73564586E-04
  5154.0167        1.0353021        1.0488588       0.98189324       0.99544997       0.43292931E-03   0.32704368E-04
  5155.4893        1.0359556        1.0490461       0.98217945       0.99526998       0.43724765E-03  -0.16607036E-03
  5156.9845        1.0365997        1.0492389       0.98245183       0.99509104      -0.59934303E-04   0.72317331E-04
  5158.4589        1.0357776        1.0494319       0.98126444       0.99491878       0.65200119E-03   0.48208330E-03
  5159.9343        1.0385230        1.0496285       0.98364547       0.99475098       0.13621150E-02   0.66371995E-04
  5161.4539        1.0398572        1.0498348       0.98460571       0.99458341       0.85078532E-03  -0.18417192E-03
  5162.9746        1.0411096        1.0500458       0.98548527       0.99442150       0.80217713E-03   0.26226078E-05
  5164.4745        1.0422802        1.0502588       0.98628935       0.99426792       0.85870717E-03   0.65537314E-04
  5165.9971        1.0437051        1.0504803       0.98734345       0.99411870       0.10002637E-02   0.53828683E-04
  5167.5424        1.0453489        1.0507111       0.98861237       0.99397460       0.10238482E-02  -0.18130080E-03
  5169.0670        1.0468482        1.0509453       0.98974304       0.99384017       0.44368833E-03  -0.56085491E-04
  5170.6144        1.0467120        1.0511899       0.98923406       0.99371206       0.85155356E-03   0.28995908E-03
  5172.1845        1.0495029        1.0514458       0.99164820       0.99359115       0.13476358E-02   0.14529254E-04
  5173.7121        1.0508865        1.0517027       0.99266653       0.99348277       0.89656083E-03  -0.11945962E-03
  5175.2624        1.0522624        1.0519719       0.99367309       0.99338261       0.97995101E-03   0.37600256E-04
  5176.8575        1.0539689        1.0522583       0.99500092       0.99329040       0.10148287E-02  -0.62098789E-05
  5178.4537        1.0555011        1.0525550       0.99615570       0.99320967       0.96013343E-03  -0.77666945E-04
  5180.0071        1.0569929        1.0528539       0.99728164       0.99314270       0.77020886E-03  -0.71204738E-04
  5181.6054        1.0579285        1.0531725       0.99784222       0.99308626       0.73571745E-03   0.22925170E-04
  5183.2047        1.0593454        1.0535031       0.99888529       0.99304296       0.84351438E-03  -0.10772992E-04
  5184.8051        1.0606275        1.0538461       0.99979475       0.99301338       0.70124711E-03  -0.84565436E-04
  5186.4066        1.0615908        1.0542022        1.0003865       0.99299809       0.57274431E-03  -0.33074413E-04
  5188.0311        1.0624752        1.0545772        1.0008957       0.99299774       0.59454906E-03   0.26516603E-04
  5189.6787        1.0635362        1.0549721        1.0015776       0.99301357       0.65950929E-03  -0.38119484E-04
  5191.2835        1.0646202        1.0553715        1.0022939       0.99304523       0.47056925E-03  -0.91778948E-04
  5192.9333        1.0650677        1.0557979        1.0023648       0.99309504       0.36080553E-03  -0.81983702E-05
  5194.5622        1.0658032        1.0562350        1.0027300       0.99316197       0.44368925E-03   0.15864500E-05
  5196.2584        1.0665430        1.0567081        1.0030859       0.99325103       0.36608063E-03  -0.57271050E-04
  5197.8896        1.0670213        1.0571806        1.0031965       0.99335590       0.25312556E-03  -0.21994861E-04
  5199.5440        1.0673747        1.0576782        1.0031785       0.99348211       0.29381432E-03  -0.10453504E-04
  5201.2217        1.0680003        1.0582022        1.0034291       0.99363112       0.21829344E-03  -0.58008635E-04
  5202.9225        1.0681122        1.0587541        1.0031624       0.99380442       0.97832145E-04  -0.60458955E-04
  5204.6025        1.0683310        1.0593202        1.0030090       0.99399822       0.13893804E-04  -0.25304834E-04
  5206.2837        1.0681589        1.0599083        1.0024659       0.99421529       0.12777535E-04   0.21257065E-04
  5207.9660        1.0683740        1.0605189        1.0023114       0.99445628       0.85391941E-04   0.32069733E-05
  5209.6939        1.0684501        1.0611698        1.0020095       0.99472924       0.23713955E-04  -0.37047407E-05
  5211.4230        1.0684560        1.0618459        1.0016389       0.99502885       0.72584652E-04  -0.92487491E-05
  5213.1089        1.0686980        1.0625296        1.0015154       0.99534712      -0.78705227E-05  -0.56561595E-04
  5214.8627        1.0684289        1.0632673        1.0008679       0.99570629      -0.12197027E-03  -0.15506904E-04
  5216.5955        1.0682727        1.0640232        1.0003394       0.99608997      -0.61936896E-04   0.63842266E-04
  5218.3740        1.0682114        1.0648278       0.99989787       0.99651426       0.10219908E-03   0.30091804E-04
  5220.0871        1.0686295        1.0656310       0.99995138       0.99695285       0.43131646E-04  -0.69444394E-04
  5221.8459        1.0683612        1.0664851       0.99931043       0.99743436      -0.13890491E-03  -0.14703044E-04
  5223.6061        1.0681407        1.0673705       0.99871886       0.99794865      -0.86083672E-05   0.56303740E-04
  5225.3898        1.0683307        1.0682997       0.99853452       0.99850358       0.60629914E-04  -0.95161500E-05
  5227.1972        1.0683585        1.0692749       0.99818489       0.99910134      -0.42781814E-04  -0.28723916E-04
  5228.9389        1.0681788        1.0702473       0.99764333       0.99971186      -0.41314136E-04   0.27181953E-04
  5230.7265        1.0682126        1.0712796       0.99730746        1.0003744       0.53151453E-04   0.38820542E-04
  5232.5379        1.0683701        1.0723616       0.99709219        1.0010837       0.98400996E-04  -0.12540830E-04
  5234.3506        1.0685693        1.0734815       0.99692017        1.0018324       0.77022323E-05  -0.24070144E-04
  5236.1871        1.0683982        1.0746548       0.99637501        1.0026316       0.10564228E-04   0.61869509E-04
  5237.9802        1.0686076        1.0758386       0.99622095        1.0034520       0.23226380E-03   0.61874582E-04
  5239.7970        1.0692367        1.0770775       0.99648365        1.0043246       0.23392528E-03  -0.18997494E-04
  5241.6376        1.0694632        1.0783739       0.99634087        1.0052517       0.16278237E-03  -0.55745932E-05
  5243.4797        1.0698362        1.0797138       0.99634623        1.0062239       0.21339573E-03   0.16849883E-04
  5245.3456        1.0702544        1.0811150       0.99639408        1.0072547       0.22526173E-03   0.13203677E-04
  5247.1905        1.0706721        1.0825449       0.99644739        1.0083202       0.26239193E-03  -0.19687123E-04
  5249.0367        1.0712230        1.0840208       0.99663565        1.0094336       0.15259459E-03  -0.22897019E-04
  5250.9069        1.0712392        1.0855628       0.99628650        1.0106102       0.17729745E-03   0.43793257E-04
  5252.7786        1.0718864        1.0871540       0.99657003        1.0118377       0.31646458E-03   0.45851449E-04
  5254.6517        1.0724243        1.0887954       0.99674596        1.0131172       0.34900196E-03  -0.28409472E-05
  5256.5715        1.0732101        1.0905295       0.99716290        1.0144823       0.30568915E-03  -0.20508725E-04
  5258.4475        1.0735846        1.0735845       0.99717892       0.99717892       0.27115494E-03   0.37928034E-04
  5260.3250        1.0742279        1.0742278       0.99746545       0.99746545       0.44805203E-03   0.39130444E-04
  5262.2492        1.0752880        1.0752879       0.99816197       0.99816197       0.41991715E-03  -0.38850804E-04
  5264.1523        1.0758350        1.0758350       0.99835155       0.99835155       0.29935834E-03  -0.32372350E-04
  5266.0796        1.0764346        1.0764346       0.99859119       0.99859119       0.29591810E-03   0.37213871E-04
  5268.0311        1.0769828        1.0769828       0.99877710       0.99877710       0.44370351E-03   0.54273019E-04
  5269.9614        1.0781570        1.0781569       0.99959499       0.99959499       0.50659511E-03  -0.23284229E-04
  5271.8933        1.0789394        1.0789394        1.0000230        1.0000230       0.35377516E-03  -0.62743719E-04
  5273.8267        1.0795244        1.0795244        1.0002554        1.0002554       0.26407181E-03  -0.69273061E-05
  5275.7844        1.0799669        1.0799669        1.0003431        1.0003431       0.32682032E-03   0.30107387E-04
  5277.7437        1.0808046        1.0808045        1.0008278        1.0008278       0.38200244E-03   0.28866304E-04
  5279.7274        1.0814732        1.0814731        1.0011412        1.0011412       0.44064016E-03   0.85304030E-05
  5281.7355        1.0825635        1.0825635        1.0018744        1.0018744       0.41605411E-03  -0.12539931E-04
  5283.7224        1.0831353        1.0831353        1.0020950        1.0020950       0.39054313E-03   0.84809091E-05
  5285.6881        1.0841072        1.0841071        1.0027216        1.0027216       0.44957575E-03  -0.11496960E-04
  5287.6782        1.0849138        1.0849137        1.0031809        1.0031809       0.34506346E-03  -0.31207024E-04
  5289.6929        1.0854891        1.0854891        1.0034069        1.0034069       0.32459786E-03  -0.35873194E-05
  5291.6863        1.0862148        1.0862147        1.0037892        1.0037892       0.33068512E-03   0.61827577E-05
  5293.7042        1.0868156        1.0868155        1.0040448        1.0040448       0.34939875E-03   0.10509875E-04
  5295.7239        1.0876255        1.0876255        1.0045115        1.0045115       0.37311980E-03  -0.14070338E-04
  5297.7681        1.0883319        1.0883319        1.0048728        1.0048728       0.29221831E-03  -0.15569595E-04
  5299.8141        1.0888207        1.0888207        1.0050187        1.0050187       0.30943704E-03   0.12658947E-05
  5301.8618        1.0895986        1.0895986        1.0054557        1.0054557       0.29740050E-03  -0.34556583E-04
  5303.9112        1.0900392        1.0900392        1.0055575        1.0055575       0.16785526E-03  -0.27153294E-04
  5305.9623        1.0902869        1.0902869        1.0054686        1.0054686       0.18605842E-03   0.13171689E-04
  5308.0383        1.0908071        1.0908070        1.0056504        1.0056504       0.22221614E-03  -0.14755950E-04
  5310.0928        1.0912048        1.0912048        1.0057157        1.0057157       0.12510897E-03   0.11994090E-04
  5312.1722        1.0913243        1.0913242        1.0055012        1.0055012       0.27179851E-03   0.42334697E-04
  5314.2765        1.0923419        1.0923419        1.0061833        1.0061833       0.30222464E-03  -0.42526112E-04
  5316.3826        1.0925968        1.0925967        1.0061049        1.0061049       0.92746567E-04  -0.34034454E-04
  5318.4905        1.0927328        1.0927327        1.0059099        1.0059099       0.15880345E-03   0.98020014E-05
  5320.6002        1.0932665        1.0932665        1.0061149        1.0061149       0.13408749E-03  -0.44893367E-05
  5322.7118        1.0932988        1.0932987        1.0058206        1.0058206       0.13985261E-03  -0.41453600E-05
  5324.8251        1.0938574        1.0938574        1.0060549        1.0060549       0.11657376E-03  -0.12672594E-04
  5326.9403        1.0937917        1.0937917        1.0056672        1.0056672       0.86266549E-04   0.68244950E-05
  5329.0805        1.0942245        1.0942245        1.0057768        1.0057768       0.14561471E-03  -0.10793591E-04
  5331.2226        1.0944153        1.0944152        1.0056466        1.0056466       0.40045153E-04  -0.14167277E-04
  5333.3665        1.0943961        1.0943961        1.0053089        1.0053089       0.84893765E-04   0.33547069E-04
  5335.5357        1.0947814        1.0947814        1.0053745        1.0053745       0.18473702E-03   0.11393749E-04
  5337.6834        1.0951936        1.0951936        1.0054728        1.0054728       0.13407944E-03  -0.35181356E-04
  5339.8797        1.0953639        1.0953638        1.0053248        1.0053248       0.31909207E-04  -0.26152320E-04
  5342.0546        1.0953331        1.0953331        1.0049815        1.0049815       0.19762417E-04   0.17508045E-04
  5344.2314        1.0954499        1.0954498        1.0047883        1.0047883       0.10809896E-03   0.27287929E-04
  5346.4335        1.0958065        1.0958064        1.0048339        1.0048339       0.13925353E-03  -0.10722187E-04
  5348.6376        1.0960635        1.0960634        1.0047825        1.0047825       0.60854862E-04  -0.13252809E-04
  5350.8437        1.0960748        1.0960748        1.0044879        1.0044879       0.80805994E-04  -0.21246394E-05
  5353.0517        1.0964201        1.0964201        1.0045297        1.0045297       0.51476492E-04  -0.19132639E-06
  5355.2617        1.0963023        1.0963022        1.0041109        1.0041109       0.79960714E-04   0.33057614E-04
  5357.4737        1.0967737        1.0967737        1.0042839        1.0042839       0.19765726E-03   0.12358022E-04
  5359.7112        1.0971817        1.0971817        1.0043929        1.0043929       0.13494773E-03  -0.19113018E-04
  5361.9271        1.0973747        1.0973747        1.0042924        1.0042924       0.11253934E-03   0.72482844E-05
  5364.1923        1.0976860        1.0976860        1.0043068        1.0043068       0.16742802E-03  -0.47516136E-05
  5366.4358        1.0981296        1.0981295        1.0044590        1.0044590       0.91115743E-04  -0.22788466E-04
  5368.7051        1.0980972        1.0980972        1.0041349        1.0041349       0.64588231E-04   0.48554856E-05
  5370.9764        1.0984229        1.0984228        1.0041714        1.0041714       0.11316256E-03  -0.11781606E-04
  5373.2498        1.0986115        1.0986115        1.0040737        1.0040737       0.11044367E-04  -0.16370812E-04
  5375.5015        1.0984728        1.0984728        1.0036542        1.0036542       0.39082997E-04   0.43724007E-04
  5377.8028        1.0987895        1.0987894        1.0036869        1.0036869       0.21011977E-03   0.28492255E-04
  5380.1061        1.0994404        1.0994403        1.0040566        1.0040566       0.17027844E-03  -0.18993323E-04
  5382.4117        1.0995743        1.0995742        1.0039120        1.0039120       0.12258144E-03  -0.50601916E-05
  5384.6955        1.1000029        1.1000029        1.0040678        1.0040678       0.14705519E-03   0.80148757E-05
  5387.0291        1.1002533        1.1002532        1.0040424        1.0040424       0.15958933E-03  -0.45409022E-05
  5389.3410        1.1007443        1.1007442        1.0042632        1.0042632       0.12596043E-03  -0.24032568E-04
  5391.6789        1.1008390        1.1008389        1.0040878        1.0040878       0.47842692E-04  -0.36970567E-05
  5394.0190        1.1009681        1.1009681        1.0039497        1.0039497       0.10866560E-03   0.39238100E-04
  5396.3613        1.1013478        1.1013477        1.0040650        1.0040650       0.23157117E-03  -0.66940886E-05
  5398.7297        1.1020590        1.1020589        1.0045120        1.0045120       0.77131758E-04  -0.41971838E-04
  5401.0764        1.1017115        1.1017114        1.0039059        1.0039059       0.33669760E-04   0.26266597E-04
  5403.4493        1.1022179        1.1022178        1.0041541        1.0041541       0.20109959E-03   0.27104526E-04
  5405.8245        1.1026663        1.1026663        1.0043471        1.0043471       0.16236476E-03  -0.21808111E-04
  5408.2018        1.1029895        1.1029895        1.0044180        1.0044180       0.97456545E-04  -0.29032233E-04
  5410.5574        1.1031276        1.1031275        1.0043091        1.0043091       0.24958105E-04   0.58124852E-06
  5412.9634        1.1031084        1.1031083        1.0040410        1.0040410       0.10022422E-03   0.15504434E-04
  5415.3475        1.1036076        1.1036076        1.0042969        1.0042969       0.99225892E-04  -0.10316387E-04
  5417.7581        1.1035841        1.1035841        1.0040305        1.0040305       0.50760235E-04  -0.68092293E-05
  5420.1709        1.1038525        1.1038524        1.0040591        1.0040591       0.66382255E-04   0.78382469E-05
  5422.5861        1.1039046        1.1039046        1.0038746        1.0038746       0.88603291E-04  -0.45156891E-05
  5425.0036        1.1042807        1.1042806        1.0040171        1.0040171       0.44559285E-04  -0.89739205E-05
  5427.4476        1.1041212        1.1041212        1.0036249        1.0036249       0.44976577E-04   0.71790069E-05
  5429.8697        1.1044995        1.1044995        1.0037758        1.0037758       0.79493050E-04  -0.91888186E-05
  5432.3185        1.1045084        1.1045084        1.0035583        1.0035583       0.21876074E-06  -0.28570449E-04
  5434.7696        1.1045006        1.1045006        1.0033272        1.0033272      -0.60499292E-04   0.66296822E-06
  5437.2231        1.1042117        1.1042117        1.0028182        1.0028182       0.34703547E-05   0.23862424E-04
  5439.7033        1.1045177        1.1045177        1.0029053        1.0029053       0.57230748E-04   0.20356620E-06
  5442.1616        1.1044943        1.1044943        1.0026683        1.0026683       0.44756664E-05  -0.88145628E-05
  5444.6467        1.1045399        1.1045398        1.0025014        1.0025014       0.13656839E-04   0.21590226E-05
  5447.1342        1.1045623        1.1045622        1.0023147        1.0023147       0.15211622E-04  -0.14687831E-04
  5449.6242        1.1046156        1.1046155        1.0021622        1.0021622      -0.59451842E-04  -0.18900095E-04
  5452.1166        1.1042660        1.1042660        1.0016102        1.0016102      -0.78956210E-04  -0.59526465E-05
  5454.6114        1.1042218        1.1042217        1.0013668        1.0013668      -0.89138881E-04   0.20577139E-04
  5457.1333        1.1038189        1.1038188        1.0007661        1.0007661       0.24273124E-04   0.39230704E-04
  5459.6576        1.1043443        1.1043442        1.0010972        1.0010972       0.10882710E-03  -0.16011035E-04
  5462.1844        1.1043686        1.1043685        1.0009307        1.0009307      -0.56600213E-04  -0.35017690E-04
  5464.7138        1.1040581        1.1040581        1.0004328        1.0004328      -0.68229343E-04   0.63140913E-05
  5467.2703        1.1040215        1.1040215        1.0002105        1.0002105      -0.24487376E-04   0.84845271E-05
  5469.8047        1.1039334        1.1039334       0.99994193       0.99994193      -0.25035464E-04   0.40970658E-05
  5472.3663        1.1038940        1.1038939       0.99972377       0.99972377      -0.36087287E-05  -0.11706542E-04
  5474.9305        1.1039149        1.1039149       0.99956960       0.99956960      -0.85040855E-04  -0.17509175E-04
  5477.4725        1.1034597        1.1034597       0.99894445       0.99894445      -0.93014078E-04   0.27788779E-05
  5480.0419        1.1034395        1.1034395       0.99875619       0.99875619      -0.70836899E-04  -0.21049762E-05
  5482.6138        1.1030955        1.1030955       0.99824778       0.99824778      -0.10383639E-03   0.90101053E-05
  5485.2131        1.1029026        1.1029025       0.99789241       0.99789241      -0.24243842E-04   0.15358901E-04
  5487.8150        1.1029694        1.1029694       0.99780060       0.99780060      -0.23951676E-04  -0.85542359E-05
  5490.4196        1.1027778        1.1027778       0.99745399       0.99745399      -0.68781471E-04  -0.16596130E-04
  5493.0517        1.1026093        1.1026092       0.99713267       0.99713267      -0.11086063E-03  -0.10532581E-04
  5495.6616        1.1021967        1.1021967       0.99657257       0.99657257      -0.12399326E-03   0.15242943E-04
  5498.2991        1.1019586        1.1019586       0.99618928       0.99618928      -0.30874811E-04   0.26045343E-04
  5500.9144        1.1020345        1.1020345       0.99612514       0.99612514       0.12817720E-04   0.58994002E-05
  5503.5573        1.1020260        1.1020260       0.99597901       0.99597901       0.14541553E-06  -0.11968964E-05
  5506.1780        1.1020353        1.1020353       0.99585578       0.99585578       0.65177361E-05   0.36967278E-05
  5508.8014        1.1020602        1.1020601       0.99575192       0.99575192       0.19531426E-04  -0.66133072E-05
  5511.4775        1.1021388        1.1021388       0.99570323       0.99570323      -0.28529485E-04  -0.12415073E-04
  5514.1313        1.1019081        1.1019081       0.99535032       0.99535032      -0.46639670E-04   0.46905311E-05
  5516.7879        1.1018911        1.1018911       0.99521497       0.99521497      -0.36208892E-05  -0.90009284E-04
  5519.4723        1.1018888        1.1018887       0.99509711       0.99509711      -0.52737925E-03  -0.23547919E-04
  5522.1596        1.0990582        1.0990582       0.99215499       0.99215499      -0.13011325E-03   0.17246764E-03
  5524.8496        1.1011891        1.1011891       0.99417836       0.99417836       0.40003097E-03   0.18613258E-04
  5527.5425        1.1012115        1.1012115       0.99409722       0.99409722      -0.29919942E-04  -0.97961131E-04
  5530.2382        1.1010279        1.1010279       0.99381406       0.99381406      -0.12784238E-03  -0.59915115E-05
  5532.9619        1.1005187        1.1005187       0.99320849       0.99320849      -0.62390339E-04   0.24743716E-04
  5535.6885        1.1006879        1.1006878       0.99328539       0.99328539       0.70182940E-05   0.67430226E-05
  5538.4180        1.1005570        1.1005569       0.99306641       0.99306641      -0.25599734E-04  -0.18634117E-04
  5541.1504        1.1005480        1.1005480       0.99297348       0.99297348      -0.94759388E-04  -0.18444455E-04
  5543.8857        1.1000389        1.1000388       0.99238451       0.99238451      -0.12644848E-03  -0.11925515E-04
  5546.6239        1.0998559        1.0998559       0.99212590       0.99212590      -0.16003370E-03  -0.10035775E-04
  5549.3396        1.0991661        1.0991660       0.99136524       0.99136524      -0.18118260E-03  -0.29749817E-05
  5552.1090        1.0988621        1.0988621       0.99099338       0.99099339      -0.17635177E-03   0.60350082E-05
  5554.8814        1.0981888        1.0981887       0.99025643       0.99025643      -0.14773779E-03   0.75498494E-05
  5557.6568        1.0980425        1.0980424       0.99005085       0.99005085      -0.13446671E-03  -0.31890294E-07
  5560.4351        1.0974420        1.0974419       0.98939535       0.98939535      -0.14791490E-03  -0.41508989E-05
  5563.2419        1.0972164        1.0972163       0.98911865       0.98911865      -0.15764990E-03  -0.14134621E-04
  5566.0518        1.0965565        1.0965565       0.98841211       0.98841211      -0.22730482E-03  -0.18715379E-05
  5568.8647        1.0959383        1.0959382       0.98775166       0.98775166      -0.16817318E-03   0.99615067E-05
  5571.6807        1.0956099        1.0956098       0.98738548       0.98738548      -0.17123249E-03  -0.13894147E-04
  5574.4740        1.0949778        1.0949777       0.98672038       0.98672038      -0.24610962E-03  -0.44380451E-06
  5577.2704        1.0942342        1.0942342       0.98594818       0.98594818      -0.17371323E-03   0.16774340E-04
  5580.0955        1.0940013        1.0940012       0.98569084       0.98569084      -0.15181267E-03  -0.11903103E-04
  5582.9237        1.0933760        1.0933759       0.98504565       0.98504565      -0.24100504E-03   0.40018720E-05
  5585.7807        1.0926311        1.0926311       0.98428533       0.98428533      -0.12906123E-03   0.30894840E-04
  5588.6408        1.0926381        1.0926381       0.98428148       0.98428148      -0.64376152E-04   0.83908602E-05
  5591.4782        1.0922643        1.0922643       0.98390153       0.98390153      -0.81254303E-04  -0.10419627E-04
  5594.3705        1.0921725        1.0921725       0.98380818       0.98380818      -0.12407749E-03  -0.20047943E-04
  5597.2400        1.0915494        1.0915494       0.98318818       0.98318818      -0.19676654E-03  -0.10497895E-04
  5600.1127        1.0910427        1.0910426       0.98268925       0.98268925      -0.18435850E-03  -0.55690575E-05
  5602.9627        1.0904944        1.0904943       0.98215336       0.98215336      -0.22863658E-03  -0.25129189E-04
  5605.8677        1.0897269        1.0897268       0.98140322       0.98140322      -0.32897698E-03  -0.13545339E-04
  5608.7499        1.0885905        1.0885905       0.98028886       0.98028886      -0.30702617E-03   0.20885785E-04
  5611.6613        1.0879481        1.0879480       0.97967340       0.97967340      -0.20797310E-03   0.16839567E-04
  5614.5759        1.0873789        1.0873788       0.97913604       0.97913604      -0.20891885E-03  -0.19893987E-05
  5617.4938        1.0867296        1.0867295       0.97852344       0.97852344      -0.21957626E-03  -0.13565530E-04
  5620.4410        1.0860910        1.0860910       0.97792691       0.97792691      -0.28848204E-03  -0.21906510E-04
  5623.3654        1.0850357        1.0850357       0.97691813       0.97691813      -0.34820253E-03  -0.37556548E-05
  5626.2931        1.0840533        1.0840533       0.97598721       0.97598721      -0.31046051E-03   0.80274435E-05
  5629.2241        1.0832168        1.0832168       0.97520710       0.97520710      -0.30117215E-03   0.55847032E-07
  5632.1845        1.0822790        1.0822789       0.97433120       0.97433120      -0.31013149E-03   0.58404353E-05
  5635.1220        1.0813877        1.0813876       0.97350625       0.97350625      -0.26672584E-03   0.38797944E-05
  5638.0891        1.0807041        1.0807040       0.97289466       0.97289466      -0.28722286E-03  -0.15460631E-04
  5641.0595        1.0796823        1.0796823       0.97194997       0.97194997      -0.35852334E-03  -0.48169419E-05
  5644.0596        1.0785635        1.0785635       0.97091414       0.97091414      -0.31598241E-03  -0.22041700E-04
  5647.0368        1.0777936        1.0777935       0.97023158       0.97023158      -0.49027319E-03   0.10916461E-04
  5650.0173        1.0756426        1.0756426       0.96817313       0.96817313      -0.25094541E-03   0.64414613E-04
  5653.0012        1.0762968        1.0762968       0.96892503       0.96892503      -0.10607868E-03  -0.20085880E-04
  5655.9885        1.0750092        1.0750092       0.96774025       0.96774025      -0.37088221E-03  -0.35856418E-04
  5659.0056        1.0740699        1.0740699       0.96690998       0.96690998      -0.32137495E-03   0.17198610E-04
  5662.0262        1.0730688        1.0730688       0.96602324       0.96602324      -0.26704216E-03  -0.55212544E-05
  5665.0767        1.0724487        1.0724486       0.96552380       0.96552380      -0.35489504E-03  -0.32736559E-04
  5668.1042        1.0709118        1.0709117       0.96411195       0.96411195      -0.46601497E-03  -0.11084432E-04
  5671.1352        1.0696253        1.0696253       0.96295589       0.96295589      -0.42205007E-03   0.14459870E-04
  5674.1430        1.0683631        1.0683631       0.96182823       0.96182823      -0.37869471E-03  -0.28717087E-05
  5677.2075        1.0673258        1.0673257       0.96093328       0.96093328      -0.43948795E-03  -0.20363705E-04
  5680.2756        1.0656679        1.0656679       0.95942331       0.95942331      -0.50357717E-03  -0.17442768E-05
  5683.3205        1.0642474        1.0642474       0.95815487       0.95815487      -0.45015071E-03   0.21045657E-04
  5686.4225        1.0629009        1.0629008       0.95696867       0.95696867      -0.37421162E-03   0.80408677E-05
  5689.5280        1.0619245        1.0619244       0.95615827       0.95615827      -0.40023703E-03  -0.84307218E-05
  5692.5835        1.0604350        1.0604350       0.95483746       0.95483746      -0.42615330E-03  -0.23983473E-05
  5695.6694        1.0593073        1.0593073       0.95388548       0.95388548      -0.41496624E-03  -0.10019449E-04
  5698.7589        1.0578724        1.0578724       0.95263195       0.95263195      -0.48802740E-03  -0.37738412E-05
  5701.8788        1.0562770        1.0562769       0.95122510       0.95122510      -0.43839952E-03   0.14931155E-04
  5704.9755        1.0551471        1.0551470       0.95028792       0.95028792      -0.39520639E-03  -0.54377836E-05
  5708.1297        1.0538066        1.0538065       0.94914928       0.94914928      -0.47239057E-03  -0.23424689E-04
  5711.2607        1.0521780        1.0521780       0.94772671       0.94772671      -0.54243524E-03  -0.74151717E-05
  5714.3682        1.0504226        1.0504225       0.94618122       0.94618122      -0.51865011E-03   0.86834024E-05
  5717.5065        1.0489386        1.0489386       0.94491486       0.94491486      -0.48820045E-03   0.54196777E-05
  5720.6484        1.0473566        1.0473565       0.94355626       0.94355626      -0.48461345E-03  -0.30124062E-05
  5723.8212        1.0458784        1.0458784       0.94230944       0.94230944      -0.50722289E-03  -0.12529663E-04
  5727.0249        1.0441223        1.0441222       0.94079267       0.94079267      -0.56450885E-03  -0.94385253E-05
  5730.1780        1.0422900        1.0422899       0.93920166       0.93920166      -0.56722171E-03   0.10703478E-04
  5733.3348        1.0405432        1.0405431       0.93770209       0.93770209      -0.49697097E-03   0.16453170E-04
  5736.5226        1.0391369        1.0391368       0.93655123       0.93655123      -0.46283292E-03  -0.53332628E-05
  5739.7142        1.0375906        1.0375905       0.93526641       0.93526641      -0.53099399E-03  -0.95417630E-05
  5742.9369        1.0357309        1.0357309       0.93367669       0.93367669      -0.52403665E-03   0.37380087E-05
  5746.1362        1.0342252        1.0342252       0.93244476       0.93244476      -0.50698850E-03  -0.22505409E-05
  5749.3666        1.0324711        1.0324711       0.93097306       0.93097306      -0.53850696E-03  -0.12439948E-04
  5752.5460        1.0307735        1.0307734       0.92955908       0.92955908      -0.58672607E-03  -0.90516539E-05
  5755.7842        1.0287058        1.0287057       0.92778621       0.92778621      -0.59659685E-03   0.44893559E-05
  5758.9987        1.0269238        1.0269238       0.92630283       0.92630283      -0.55775761E-03  -0.42654639E-05
  5762.2446        1.0251024        1.0251024       0.92478889       0.92478889      -0.62415345E-03  -0.23060009E-04
  5765.4944        1.0228695        1.0228695       0.92286976       0.92286976      -0.70754850E-03  -0.51060793E-06
  5768.7481        1.0205009        1.0205008       0.92082135       0.92082135      -0.62747419E-03   0.29416247E-04
  5771.9781        1.0188012        1.0188011       0.91944541       0.91944541      -0.51682238E-03   0.37915293E-05
  5775.2672        1.0171317        1.0171316       0.91811177       0.91811177      -0.60275683E-03  -0.17528894E-04
  5778.5327        1.0148503        1.0148503       0.91616991       0.91616991      -0.63171727E-03   0.12445037E-04
  5781.8576        1.0129684        1.0129684       0.91463989       0.91463989      -0.52073906E-03   0.95630578E-05
  5785.1310        1.0114143        1.0114143       0.91343839       0.91343839      -0.56861735E-03  -0.18718564E-04
  5788.4084        1.0092435        1.0092435       0.91162667       0.91162667      -0.64336063E-03  -0.90874674E-05
  5791.6898        1.0071947        1.0071946       0.90994348       0.90994348      -0.62822023E-03  -0.31887303E-05
  5795.0029        1.0051007        1.0051007       0.90822493       0.90822493      -0.66438872E-03  -0.85058230E-05
  5798.3480        1.0027710        1.0027710       0.90628059       0.90628059      -0.68485370E-03  -0.54017371E-05
  5801.6694        1.0005351        1.0005351       0.90443361       0.90443361      -0.70039940E-03   0.12003497E-05
  5804.9668       0.99813522       0.99813517       0.90242599       0.90242599      -0.67690883E-03   0.19427676E-04
  5808.2962       0.99604939       0.99604935       0.90074254       0.90074254      -0.57165607E-03   0.10950289E-04
  5811.6577       0.99431033       0.99431028       0.89941610       0.89941610      -0.60364154E-03  -0.17458138E-04
  5814.9952       0.99200560       0.99200555       0.89752742       0.89752742      -0.68860814E-03  -0.13906855E-04
  5818.3931       0.98967227       0.98967223       0.89562417       0.89562417      -0.69730977E-03  -0.31689106E-05
  5821.7108       0.98732275       0.98732270       0.89370089       0.89370089      -0.70988928E-03   0.29309063E-05
  5825.0889       0.98491900       0.98491895       0.89173757       0.89173757      -0.67768501E-03  -0.17268578E-05
  5828.4711       0.98274139       0.98274135       0.89000743       0.89000743      -0.72156335E-03  -0.11706947E-04
  5831.8576       0.98003495       0.98003491       0.88775553       0.88775553      -0.75692582E-03  -0.75229735E-05
  5835.2765       0.97759021       0.97759016       0.88577629       0.88577629      -0.77276020E-03  -0.52703470E-05
  5838.6430       0.97479147       0.97479142       0.88344240       0.88344240      -0.79268723E-03  -0.21051623E-05
  5842.0704       0.97220477       0.97220473       0.88133558       0.88133558      -0.78706246E-03  -0.36186882E-05
  5845.4737       0.96941528       0.96941523       0.87902919       0.87902919      -0.81740541E-03  -0.53163028E-05
  5848.9097       0.96661429       0.96661425       0.87672262       0.87672262      -0.82342225E-03   0.53189880E-05
  5852.3499       0.96375326       0.96375322       0.87436334       0.87436334      -0.78083098E-03  -0.51917332E-06
  5855.7659       0.96126076       0.96126071       0.87237570       0.87237570      -0.82698181E-03  -0.11190936E-04
  5859.1863       0.95809968       0.95809964       0.86972679       0.86972679      -0.85733670E-03   0.10745052E-04
  5862.6394       0.95536785       0.95536781       0.86751875       0.86751875      -0.75312569E-03   0.14741247E-04
  5866.0968       0.95289521       0.95289516       0.86557734       0.86557734      -0.75546731E-03  -0.10401687E-04
  5869.5873       0.95011894       0.95011890       0.86334429       0.86334429      -0.82539557E-03  -0.13221425E-04
  5872.9961       0.94720056       0.94720051       0.86096308       0.86096308      -0.84668589E-03  -0.24228428E-05
  5876.4953       0.94427004       0.94426999       0.85859084       0.85859084      -0.84213256E-03   0.13316213E-04
  5879.9702       0.94132744       0.94132740       0.85620954       0.85620954      -0.75381729E-03   0.11650089E-04
  5883.5070       0.93898450       0.93898445       0.85444493       0.85444493      -0.76044564E-03  -0.13939167E-04
  5886.9907       0.93598873       0.93598869       0.85202576       0.85202576      -0.85167721E-03  -0.24794567E-04
  5890.4788       0.93304677       0.93304673       0.84966804       0.84966804      -0.93330840E-03  -0.50720905E-04
  5893.9713       0.92947368       0.92947364       0.84668684       0.84668684      -0.12057396E-02   0.16000213E-04
  5897.4971       0.92458453       0.92458449       0.84240226       0.84240226      -0.82101410E-03   0.74312267E-04
  5901.0564       0.92365671       0.92365667       0.84209192       0.84209192      -0.67922972E-03  -0.22379064E-04
  5904.5332       0.91980540       0.91980536       0.83885072       0.83885072      -0.97847543E-03  -0.23777976E-04
  5908.0725       0.91679163       0.91679159       0.83646508       0.83646508      -0.84605837E-03   0.14998296E-04
  5911.6163       0.91381269       0.91381264       0.83412219       0.83412219      -0.87224101E-03  -0.18359550E-04
  5915.1646       0.91060561       0.91060557       0.83155913       0.83155913      -0.97626614E-03  -0.18907472E-04
  5918.7466       0.90685162       0.90685157       0.82846252       0.82846252      -0.10070570E-02   0.29630794E-05
  5922.2749       0.90344513       0.90344509       0.82571069       0.82571069      -0.95519775E-03   0.89275737E-05
  5925.8660       0.90005118       0.90005114       0.82299031       0.82299031      -0.94349798E-03   0.82072313E-05
  5929.4325       0.89669195       0.89669191       0.82030729       0.82030729      -0.89645367E-03   0.75706247E-05
  5933.0622       0.89360012       0.89360008       0.81791107       0.81791107      -0.88901825E-03  -0.22020655E-05
  5936.6380       0.89028613       0.89028609       0.81528967       0.81528967      -0.91232066E-03  -0.11752552E-04
  5940.2183       0.88707146       0.88707142       0.81277575       0.81277575      -0.97312069E-03  -0.74342482E-05
  5943.8032       0.88331353       0.88331349       0.80972675       0.80972675      -0.96558853E-03  -0.38817374E-05
  5947.4516       0.88008707       0.88008703       0.80722929       0.80722929      -0.10011985E-02  -0.16836464E-04
  5951.0753       0.87603271       0.87603267       0.80390648       0.80390648      -0.10880250E-02  -0.54663544E-05
  5954.6741       0.87222881       0.87222877       0.80083648       0.80083648      -0.10406792E-02   0.15505917E-04
  5958.3072       0.86850662       0.86850658       0.79786265       0.79786265      -0.97588774E-03   0.10748033E-04
  5961.9449       0.86513333       0.86513329       0.79524617       0.79524617      -0.96253241E-03  -0.10684969E-04
  5965.6170       0.86147070       0.86147066       0.79235514       0.79235514      -0.10539927E-02  -0.20814932E-04
  5969.2346       0.85745004       0.85745000       0.78910211       0.78910211      -0.11142670E-02  -0.40892445E-05
  5972.8866       0.85337043       0.85337039       0.78580498       0.78580498      -0.10837199E-02   0.73860841E-05
  5976.5432       0.84952956       0.84952952       0.78275517       0.78275517      -0.10602851E-02  -0.18001078E-05
  5980.2643       0.84554796       0.84554792       0.77958637       0.77958637      -0.10970006E-02  -0.49350226E-05
  5983.9305       0.84142569       0.84142565       0.77627260       0.77627260      -0.10967416E-02   0.35813454E-05
  5987.6016       0.83750084       0.83750080       0.77316499       0.77316499      -0.10707231E-02  -0.74422153E-06
  5991.3074       0.83352707       0.83352703       0.77002395       0.77002395      -0.11022316E-02  -0.70529103E-05
  5995.0180       0.82932625       0.82932621       0.76666475       0.76666475      -0.11230304E-02   0.17507844E-05
  5998.7335       0.82518734       0.82518730       0.76337640       0.76337640      -0.10892301E-02   0.91610140E-05
  6002.4239       0.82125952       0.82125948       0.76030117       0.76030117      -0.10551848E-02   0.85083624E-05
  6006.1491       0.81736251       0.81736247       0.75727263       0.75727263      -0.10261355E-02  -0.30947477E-04
  6009.9094       0.81357838       0.81357835       0.75437315       0.75437315      -0.12868421E-02  -0.25020818E-04
  6013.6445       0.80771711       0.80771707       0.74939855       0.74939855      -0.12136765E-02   0.49339822E-04
  6017.3544       0.80454256       0.80454252       0.74711254       0.74711254      -0.91950716E-03   0.17520351E-04
  6021.0993       0.80086237       0.80086233       0.74433719       0.74433719      -0.10830658E-02  -0.31208513E-04
  6024.8492       0.79642520       0.79642516       0.74081406       0.74081406      -0.11534087E-02  -0.85715837E-05
  6028.6344       0.79217132       0.79217128       0.73749093       0.73749093      -0.11476536E-02   0.29294557E-05
  6032.3639       0.78780093       0.78780089       0.73404554       0.73404554      -0.11313947E-02  -0.65078418E-06
  6036.1287       0.78369231       0.78369227       0.73087870       0.73087870      -0.11525307E-02  -0.69399197E-05
  6039.9289       0.77908203       0.77908200       0.72722722       0.72722722      -0.11838952E-02  -0.12736492E-04
  6043.7646       0.77465220       0.77465216       0.72377347       0.72377347      -0.12497853E-02  -0.51593450E-04
  6047.5140       0.76960229       0.76960225       0.71968574       0.71968574      -0.15752367E-02   0.11271228E-04
  6051.2989       0.76278389       0.76278386       0.71384675       0.71384675      -0.11648645E-02   0.93245584E-04
  6055.1194       0.76074303       0.76074299       0.71280275       0.71280275      -0.86606675E-03  -0.15314102E-04
  6058.9756       0.75613536       0.75613533       0.70920967       0.70920967      -0.12824263E-02  -0.69053779E-04
  6062.7450       0.75096376       0.75096372       0.70503798       0.70503798      -0.13926433E-02  -0.51691269E-05
  6066.5501       0.74558678       0.74558675       0.70067858       0.70067858      -0.13215798E-02   0.22852158E-04
  6070.3911       0.74085882       0.74085879       0.69698614       0.69698614      -0.12179134E-02   0.17355280E-04
  6074.2679       0.73618717       0.73618714       0.69336815       0.69336815      -0.11876352E-02   0.18055980E-05
  6078.0884       0.73171724       0.73171721       0.68994493       0.68994493      -0.12040151E-02  -0.13977199E-04
  6081.9448       0.72694407       0.72694403       0.68623672       0.68623672      -0.12949368E-02  -0.11664089E-04
  6085.8065       0.72172279       0.72172275       0.68209033       0.68209033      -0.12940397E-02   0.21934089E-05
  6089.7042       0.71690310       0.71690306       0.67836413       0.67836413      -0.12779173E-02  -0.39913777E-05
  6093.5453       0.71183324       0.71183321       0.67438034       0.67438034      -0.13249282E-02  -0.10037867E-04
  6097.4225       0.70667690       0.70667687       0.67032877       0.67032877      -0.13553925E-02  -0.71538179E-06
  6101.3361       0.70127365       0.70127362       0.66604932       0.66604932      -0.13305016E-02   0.12587179E-05
  6105.2550       0.69625575       0.69625572       0.66216546       0.66216546      -0.13455336E-02  -0.25169296E-05
  6109.1168       0.69080446       0.69080442       0.65784022       0.65784022      -0.13500851E-02  -0.73152784E-05
  6113.0463       0.68573683       0.68573680       0.65392709       0.65392709      -0.14025292E-02  -0.87792003E-05
  6116.9499       0.67981830       0.67981827       0.64916412       0.64916412      -0.14188534E-02  -0.21606357E-06
  6120.8900       0.67460777       0.67460774       0.64512874       0.64512874      -0.14042239E-02  -0.49448299E-05
  6124.8042       0.66878911       0.66878908       0.64048623       0.64048623      -0.14576916E-02  -0.48344725E-06
  6128.7551       0.66314288       0.66314285       0.63603601       0.63603601      -0.14080263E-02   0.64777908E-05
  6132.7113       0.65765570       0.65765567       0.63175534       0.63175534      -0.14064711E-02  -0.43582339E-04
  6136.7045       0.65196228       0.65196225       0.62728871       0.62728871      -0.17544797E-02   0.59714003E-05
  6140.6086       0.64380005       0.64380002       0.62033466       0.62033466      -0.13593131E-02   0.81168080E-04
  6144.5811       0.64125551       0.64125548       0.61902836       0.61902836      -0.11151512E-02  -0.30158713E-04
  6148.5590       0.63493415       0.63493412       0.61395590       0.61395590      -0.15990870E-02  -0.52525523E-04
  6152.5740       0.62847417       0.62847414       0.60876559       0.60876559      -0.15349825E-02   0.29707600E-04
  6156.4995       0.62274562       0.62274560       0.60428726       0.60428726      -0.13631938E-02   0.11201287E-04
  6160.4938       0.61767795       0.61767792       0.60050069       0.60050069      -0.14462705E-02  -0.30405375E-04
  6164.5253       0.61113815       0.61113812       0.59526313       0.59526313      -0.16072212E-02   0.51092041E-05
  6168.5306       0.60476103       0.60476100       0.59018893       0.59018893      -0.14052089E-02   0.29139421E-04
  6172.5095       0.59991868       0.59991865       0.58664992       0.58664992      -0.13745663E-02  -0.10841265E-04
  6176.5258       0.59377110       0.59377107       0.58182707       0.58182707      -0.14918869E-02  -0.12581350E-04
  6180.5795       0.58787915       0.58787912       0.57728147       0.57728147      -0.14760978E-02  -0.27761197E-05
  6184.6069       0.58184261       0.58184258       0.57259178       0.57259178      -0.15143210E-02  -0.91355419E-05
  6188.6399       0.57567312       0.57567309       0.56778026       0.56778026      -0.15497339E-02   0.80652012E-06
  6192.6784       0.56933393       0.56933390       0.56281014       0.56281014      -0.15078112E-02   0.11353655E-04
  6196.7546       0.56343768       0.56343766       0.55830515       0.55830515      -0.14576024E-02  -0.41970827E-05
  6200.8043       0.55748960       0.55748957       0.55374861       0.55374861      -0.15419163E-02  -0.19971809E-04
  6204.8596       0.55094045       0.55094042       0.54860228       0.54860228      -0.16194739E-02  -0.14793556E-04
  6208.9527       0.54429348       0.54429345       0.54338067       0.54338067      -0.16624601E-02  -0.13111505E-05
  6213.0516       0.53732158       0.53732155       0.53784568       0.53784568      -0.16302148E-02   0.14035186E-05
  6217.0915       0.53102548       0.53102546       0.53297517       0.53297517      -0.16510371E-02  -0.46838486E-05
  6221.2018       0.52386529       0.52386527       0.52727491       0.52727491      -0.16683891E-02   0.23471731E-05
  6225.3178       0.51730082       0.51730079       0.52218200       0.52218200      -0.16317286E-02   0.37500330E-05
  6229.4395       0.51042360       0.51042358       0.51678804       0.51678804      -0.16374975E-02   0.20749444E-05
  6233.5020       0.50389921       0.50389918       0.51173504       0.51173504      -0.16147468E-02   0.19819349E-05
  6237.6352       0.49718962       0.49718960       0.50653208       0.50653208      -0.16212542E-02  -0.60830190E-05
  6241.7742       0.49048787       0.49048785       0.50134879       0.50134879      -0.16650668E-02  -0.54306271E-05
  6245.9190       0.48339654       0.48339652       0.49578780       0.49578780      -0.16662404E-02   0.54869734E-05
  6250.0369       0.47672022       0.47672020       0.49064156       0.49064156      -0.16197296E-02  -0.17308998E-05
  6254.1605       0.47004754       0.47004752       0.48551072       0.48551072      -0.16805056E-02  -0.14062002E-04
  6258.3555       0.46274077       0.46274075       0.47978240       0.47978240      -0.17367057E-02   0.18083394E-05
  6262.4908       0.45558026       0.45558024       0.47418766       0.47418766      -0.16654416E-02   0.18274186E-04
  6266.6318       0.44895708       0.44895706       0.46914215       0.46914215      -0.15854631E-02   0.26621195E-05
  6270.8115       0.44238810       0.44238808       0.46417546       0.46417546      -0.16432909E-02  -0.21241748E-04
  6275.0301       0.43515623       0.43515621       0.45857085       0.45857085      -0.17638577E-02  -0.21170035E-04
  6279.1887       0.42761191       0.42761189       0.45264055       0.45264055      -0.18206365E-02  -0.13303406E-04
  6283.3861       0.41994299       0.41994297       0.44661066       0.44661066      -0.18750209E-02  -0.12721087E-04
  6287.5895       0.41186023       0.41186022       0.44017932       0.44017932      -0.19275038E-02  -0.80028189E-05
  6291.8319       0.40366368       0.40366366       0.43365966       0.43365966      -0.19426111E-02   0.21342197E-05
  6296.0140       0.39549471       0.39549469       0.42715377       0.42715377      -0.19095241E-02   0.12845993E-04
  6300.2352       0.38761737       0.38761736       0.42096514       0.42096514      -0.18346624E-02   0.10903874E-04
  6304.4957       0.37993365       0.37993363       0.41499611       0.41499611      -0.18170407E-02  -0.52357750E-05
  6308.7290       0.37218379       0.37218378       0.40896021       0.40896021      -0.18791340E-02  -0.15468852E-04
  6312.9348       0.36407545       0.36407543       0.40256477       0.40256477      -0.19475839E-02  -0.36985598E-05
  6317.2134       0.35565971       0.35565970       0.39590189       0.39590189      -0.19105141E-02   0.10102402E-04
  6321.4982       0.34771495       0.34771494       0.38972296       0.38972296      -0.18610730E-02   0.43971230E-05
  6325.7220       0.33982459       0.33982457       0.38358348       0.38358348      -0.18731007E-02   0.41162548E-06
  6329.9853       0.33181776       0.33181775       0.37735420       0.37735420      -0.18575795E-02   0.36894251E-05
  6334.2884       0.32391182       0.32391180       0.37125287       0.37125287      -0.18414956E-02   0.58709665E-06
  6338.6313       0.31589619       0.31589618       0.36506921       0.36506921      -0.18525034E-02  -0.82077440E-05
  6342.8793       0.30799715       0.30799713       0.35897246       0.35897246      -0.19120076E-02  -0.15003374E-04
  6347.1671       0.29957568       0.29957566       0.35238057       0.35238057      -0.19805692E-02  -0.84379880E-05
  6351.5286       0.29086661       0.29086660       0.34554324       0.34554324      -0.19849902E-02  -0.64524453E-05
  6355.8287       0.28238248       0.28238247       0.33891509       0.33891509      -0.20364577E-02  -0.45783387E-05
  6360.1350       0.27334004       0.27334003       0.33174182       0.33174182      -0.20243933E-02   0.13753596E-04
  6364.4474       0.26493485       0.26493483       0.32521901       0.32521901      -0.19179196E-02   0.38087774E-05
  6368.8340       0.25665606       0.25665604       0.31886582       0.31886582      -0.19912607E-02  -0.19961174E-04
  6373.0907       0.24772378       0.24772377       0.31181258       0.31181258      -0.20904500E-02  -0.73901563E-05
  6377.4558       0.23863261       0.23863260       0.30465898       0.30465898      -0.20549771E-02   0.98020640E-05
  6381.8271       0.22977068       0.22977067       0.29774822       0.29774822      -0.20048153E-02   0.39926017E-06
  6386.2048       0.22109249       0.22109248       0.29103494       0.29103494      -0.20514840E-02  -0.10034516E-04
  6390.5546       0.21186635       0.21186634       0.28377197       0.28377197      -0.20923915E-02   0.19170079E-05
  6394.9449       0.20280477       0.20280477       0.27670274       0.27670274      -0.20347292E-02   0.84278686E-05
  6399.3415       0.19398739       0.19398738       0.26989153       0.26989153      -0.20183367E-02   0.59285240E-05
  6403.7102       0.18511345       0.18511344       0.26302191       0.26302191      -0.19827639E-02   0.47120417E-06
  6408.1195       0.17658269       0.17658268       0.25652509       0.25652509      -0.20142004E-02  -0.16456101E-04
  6412.5008       0.16740742       0.16740741       0.24938179       0.24938179      -0.21274229E-02  -0.20268252E-04
  6416.9575       0.15778053       0.15778052       0.24183302       0.24183302      -0.21933312E-02  -0.48878632E-05
  6421.3168       0.14807101       0.14807100       0.23416712       0.23416712      -0.21705143E-02   0.42136039E-05
  6425.7518       0.13869237       0.13869237       0.22687867       0.22687867      -0.21562755E-02  -0.47339170E-05
  6430.1932       0.12893105       0.12893104       0.21922175       0.21922175      -0.22125344E-02  -0.18252699E-05
  6434.6410       0.11902471       0.11902471       0.21143407       0.21143407      -0.21725007E-02   0.53780884E-05
  6439.0605       0.10966683       0.10966682       0.20419251       0.20419251      -0.21648453E-02   0.17568538E-05
  6443.5213       0.99800235E-01   0.99800231E-01   0.19647325       0.19647325      -0.21568993E-02  -0.42351306E-05
  6447.9886       0.90409817E-01   0.90409812E-01   0.18924464       0.18924464      -0.22026570E-02  -0.96480757E-05
  6452.4275       0.80182932E-01   0.80182928E-01   0.18117704       0.18117704      -0.22428270E-02  -0.55452595E-05
  6456.9078       0.70405594E-01   0.70405590E-01   0.17359047       0.17359047      -0.22521163E-02  -0.59521247E-05
  6461.3946       0.59987980E-01   0.59987977E-01   0.16537824       0.16537824      -0.22962003E-02  -0.82216214E-05
  6465.9231       0.49704659E-01   0.49704656E-01   0.15733239       0.15733239      -0.23262366E-02  -0.83745349E-05
  6470.3528       0.39149087E-01   0.39149085E-01   0.14897675       0.14897675      -0.23712211E-02   0.23896200E-05
  6474.8593       0.28514953E-01   0.28514952E-01   0.14059212       0.14059212      -0.23048825E-02   0.98265539E-05
  6479.4430       0.18197244E-01   0.18197243E-01   0.13257429       0.13257429      -0.22818958E-02   0.50336132E-05
  6483.9276       0.78220375E-02   0.78220372E-02   0.12446079       0.12446079      -0.22592362E-02   0.37647925E-05
  6488.4540      -0.21607337E-02  -0.21607335E-02   0.11677239       0.11677239      -0.22479712E-02  -0.34426228E-05
  6492.9871      -0.12543458E-01  -0.12543457E-01   0.10869909       0.10869909      -0.22904247E-02  -0.93652115E-05
